#Acq. time (s)=	45
#Accumulations=	2
#Range (cm-¹)=	100...4000
#Windows=	1
#Auto scanning=	Off
#Autofocus=	Off
#Macrospot=	Off
#AutoExposure=	Off
#Spike filter=	Multiple accum.
#Delay time (s)=	2
#Binning=	1
#Readout mode=	Signal
#DeNoise=	Off
#ICS correction=	On
#Dark correction=	Off
#Inst. Process=	Off
#Detector Gain=	Best Dynamic
#Detector ADC=	50 kHz HS
#Detector temperature (°C)=	-60.09
#Instrument=	LabRAM HR Evol
#Detector=	SIN-EM FIVIS
#Objective=	x100_VIS_LWD
#Grating=	150 (500nm)
#ND Filter=	100%
#Laser=	633nm_Edge
#Hole=	49.98
#Temperature=	0
#Range=	Visible
#StageXY=	75x50mm Scan+
#StageZ=	Z motor
#X (µm)=	0
#Y (µm)=	0
#Z (µm)=	-40.5
#Full time(mm:ss)=	1:35
#Project=	21_11_22
#Sample=	BU04w
#Site=	
#Title=	BU04w-A-FF3-FI08-V_150 (500nm)_633nm_Edge_100%_x100_VIS_LWD_H50um_45sX2
#Remark=	
#Date=	22.11.2021 12:48
#Acquired=	22.11.2021 12:48:27
#Base:Fit=	16.12.2021 16:15:35
#Base:Fit=	16.12.2021 16:24:34
#Base:Edit=	16.12.2021 16:24:36
#Base:Edit=	16.12.2021 16:24:37
#Base:Edit=	16.12.2021 16:24:37
#Peaks:Remove=	16.12.2021 16:24:39
#Base:Sub=	16.12.2021 16:24:42
100.177	310.776
103.438	284.229
106.695	277.96
109.954	262.372
113.209	184.882
116.464	225.949
119.717	179.229
122.969	167.112
126.219	177.096
129.469	174.852
132.716	190.859
135.963	174.477
139.208	149.548
142.452	167.856
145.694	101.185
148.936	116.924
152.175	106.048
155.414	120.247
158.651	152.764
161.887	168.208
165.121	140.649
168.353	94.9297
171.586	50.2287
174.815	34.3387
178.045	24.238
181.272	37.2096
184.5	18.5527
187.724	4.77228
190.947	5.36804
194.17	-11.123
197.39	-3.60297
200.611	-15.9504
203.829	-5.13177
207.045	-4.80322
210.262	-17.7737
213.475	-8.7254
216.688	-1.49701
219.9	12.4477
223.11	22.6208
226.32	67.0742
229.527	113.275
232.733	166.243
235.939	160.296
239.142	93.6061
242.344	58.3919
245.546	40.5444
248.745	18.8624
251.943	10.5017
255.141	25.8987
258.336	31.8971
261.53	21.8192
264.723	12.7487
267.916	-0.997223
271.106	-9.93268
274.294	31.4468
277.483	19.7674
280.669	16.6098
283.854	3.96844
287.038	33.9986
290.221	7.14267
293.402	-6.44818
296.582	-6.73227
299.76	11.9378
302.938	12.6245
306.114	17.0947
309.288	37.6681
312.461	52.5854
315.634	102.456
318.805	196.671
321.974	301.367
325.142	324.923
328.309	328.665
331.475	223.082
334.639	147.676
337.802	116.618
340.963	92.1849
344.123	62.0987
347.282	50.825
350.441	38.653
353.597	36.7846
356.752	49.0298
359.906	46.1899
363.058	49.93
366.209	64.006
369.36	57.4085
372.509	48.949
375.656	32.9542
378.802	34.8442
381.947	13.2782
385.09	22.8011
388.232	45.6237
391.373	24.4766
394.512	49.402
397.652	44.3784
400.789	36.7265
403.925	48.6991
407.059	46.5918
410.192	50.112
413.324	68.667
416.455	71.0518
419.584	92.4683
422.712	101.373
425.839	153.559
428.964	194.78
432.089	198.103
435.212	161.79
438.333	166.963
441.454	128.857
444.573	128.37
447.691	123.124
450.807	137.509
453.923	163.142
457.037	135.529
460.15	118.36
463.261	101.36
466.371	81.7302
469.48	69.5392
472.588	92.8705
475.695	82.7721
478.8	59.6971
481.904	112.949
485.007	70.2302
488.108	78.749
491.208	98.4641
494.307	95.8435
497.405	90.3704
500.502	98.92
503.597	103.798
506.691	113.307
509.784	129.376
512.874	122.169
515.964	118.694
519.053	115.324
522.141	108.299
525.227	116.267
528.312	79.3537
531.396	108.098
534.479	104.104
537.559	82.2057
540.639	98.7275
543.718	72.786
546.796	81.5886
549.873	86.3836
552.948	96.0272
556.022	92.3542
559.093	79.9368
562.165	66.35
565.235	72.5296
568.304	66.3013
571.372	69.3845
574.437	74.2291
577.503	63.0342
580.567	56.5816
583.63	58.688
586.691	52.3987
589.75	47.1697
592.81	71.947
595.868	51.9993
598.924	43.445
601.98	51.9081
605.033	64.221
608.086	42.0203
611.138	59.12
614.188	76.2902
617.236	74.9637
620.285	60.4415
623.332	31.8848
626.376	49.4128
629.42	22.3635
632.464	39.43
635.506	47.8103
638.545	40.9106
641.585	27.2715
644.623	29.4302
647.659	37.3944
650.695	40.571
653.73	26.663
656.762	25.8687
659.794	22.2658
662.825	38.2884
665.854	24.443
668.883	20.8829
671.91	30.647
674.935	-5.83325
677.96	-10.7589
680.982	16.0254
684.005	13.146
687.027	1.91705
690.045	1.11014
693.064	8.7879
696.082	8.99689
699.097	0.750702
702.113	12.1686
705.126	11.3636
708.139	-3.62122
711.149	-2.75064
714.16	20.2473
717.169	2.03561
720.176	-19.0705
723.183	-0.609131
726.187	5.42612
729.192	-7.39304
732.194	-7.08215
735.196	24.1202
738.196	-13.0202
741.196	-19.2339
744.193	6.32617
747.19	-6.33838
750.185	-4.05499
753.18	-18.3877
756.173	-3.87949
759.165	6.26804
762.155	16.6151
765.146	-19.5691
768.133	-10.8568
771.121	-2.12756
774.107	-2.72784
777.092	-12.8057
780.075	-2.30057
783.058	-0.340973
786.039	-6.92706
789.02	3.41483
791.998	12.7637
794.975	9.77554
797.952	16.1397
800.927	-17.2249
803.902	10.644
806.874	-15.2766
809.845	7.79352
812.817	-1.27878
815.786	-19.7781
818.755	5.82675
821.721	-20.2073
824.686	-6.87616
827.652	-0.131409
830.615	7.69006
833.576	-10.3502
836.538	-10.5245
839.498	13.7937
842.458	8.43915
845.415	-15.7956
848.37	4.08698
851.327	22.1884
854.28	1.84485
857.233	9.71945
860.184	-4.96402
863.135	-11.189
866.084	33.5928
869.032	-8.54514
871.98	3.08734
874.925	18.3918
877.87	-0.526306
880.813	5.1832
883.756	14.6221
886.697	-5.43814
889.636	12.3907
892.576	-3.04532
895.513	11.8376
898.45	16.1094
901.385	18.3287
904.318	3.49231
907.253	26.4571
910.184	12.5349
913.114	16.5721
916.044	-3.83121
918.973	19.2726
921.9	25.5204
924.826	45.126
927.75	66.6998
930.674	53.8245
933.596	88.7995
936.519	86.559
939.439	99.6232
942.357	128.856
945.275	129.804
948.192	148.9
951.107	157.583
954.023	152.895
956.936	159.556
959.848	122.142
962.759	113.263
965.669	104.193
968.577	103.751
971.485	118.493
974.391	96.6471
977.296	128.335
980.201	143.438
983.104	158.428
986.006	204.943
988.907	229.33
991.806	200.073
994.704	154.594
997.602	168.464
1000.5	133.726
1003.39	152.501
1006.29	134.216
1009.18	146.585
1012.07	153.58
1014.96	179.68
1017.85	237.263
1020.74	228.154
1023.63	220.232
1026.51	217.234
1029.4	163.487
1032.28	131.701
1035.16	94.1565
1038.04	79.6495
1040.92	78.5875
1043.8	48.5514
1046.68	51.3484
1049.56	26.8671
1052.43	50.7253
1055.31	29.9489
1058.18	40.1135
1061.05	45.3147
1063.93	34.8692
1066.8	42.6487
1069.67	31.0796
1072.53	9.79276
1075.4	52.5381
1078.26	39.8806
1081.13	52.4289
1083.99	71.7591
1086.85	81.3878
1089.72	117.288
1092.58	164.743
1095.44	208.332
1098.29	196.67
1101.15	159.91
1104	137.772
1106.86	96.6384
1109.71	72.639
1112.56	64.5277
1115.42	55.828
1118.27	32.5589
1121.11	53.8129
1123.96	39.9398
1126.81	37.7213
1129.65	49.2878
1132.5	58.8847
1135.34	81.2712
1138.18	71.3044
1141.03	83.9699
1143.87	114.197
1146.7	133.464
1149.54	207.984
1152.38	245.937
1155.21	222.656
1158.05	148.972
1160.88	92.8999
1163.71	69.0579
1166.55	28.6255
1169.37	35.3647
1172.2	12.6706
1175.03	9.58868
1177.86	28.0094
1180.68	18.1612
1183.51	5.46429
1186.33	27.1687
1189.15	17.714
1191.98	7.31662
1194.8	17.6698
1197.61	-11.0967
1200.43	25.8966
1203.25	17.0837
1206.06	4.34662
1208.88	21.1985
1211.69	10.4608
1214.51	22.5333
1217.32	6.97781
1220.13	6.28604
1222.94	12.5816
1225.74	7.93036
1228.55	6.22821
1231.36	8.4509
1234.16	3.56744
1236.97	3.62463
1239.77	5.58444
1242.57	9.4071
1245.37	12.1214
1248.17	0.589722
1250.97	8.11002
1253.77	18.6816
1256.56	9.85718
1259.36	28.2136
1262.15	-17.158
1264.94	-2.9408
1267.74	3.20859
1270.53	-14.8937
1273.32	24.2953
1276.11	161.862
1278.89	312.123
1281.68	112.216
1284.46	13.9551
1287.25	0.988312
1290.03	12.0974
1292.81	-9.72382
1295.59	3.55496
1298.38	2.89468
1301.15	-23.7129
1303.93	4.80185
1306.71	-11.5569
1309.48	11.2418
1312.26	-2.81482
1315.03	-10.8749
1317.81	12.2574
1320.58	-11.8609
1323.35	-11.7897
1326.12	-4.58112
1328.88	2.65948
1331.65	2.82144
1334.42	-26.635
1337.18	0.881958
1339.95	-0.160645
1342.71	-16.6866
1345.47	4.5636
1348.23	-10.0403
1350.99	-8.28293
1353.75	9.85406
1356.51	0.220154
1359.26	-0.238495
1362.02	-0.765442
1364.77	5.8154
1367.53	2.04858
1370.28	-5.85092
1373.03	-1.43863
1375.78	21.4823
1378.53	146.046
1381.28	455.354
1384.03	281.035
1386.77	61.6477
1389.52	6.52191
1392.26	13.073
1395	-11.094
1397.74	-0.106689
1400.49	3.60828
1403.23	48.4834
1405.96	25.5257
1408.7	-6.71176
1411.44	6.39285
1414.17	3.04202
1416.91	2.82489
1419.64	-12.9274
1422.37	17.9307
1425.11	9.48203
1427.84	19.6876
1430.56	10.1931
1433.29	-19.1408
1436.02	6.70511
1438.74	0.248352
1441.47	7.31454
1444.19	2.9808
1446.92	15.2997
1449.64	-14.4062
1452.36	-4.37714
1455.08	-5.93185
1457.8	-17.0224
1460.52	-11.3611
1463.23	-14.1521
1465.95	-13.8274
1468.66	-17.7207
1471.38	-9.00793
1474.09	4.97003
1476.8	9.55182
1479.51	-20.4506
1482.22	-1.11935
1484.93	1.46103
1487.64	-12.7289
1490.34	-9.01065
1493.05	15.8027
1495.75	-20.3648
1498.46	-8.1095
1501.16	-10.5466
1503.86	-14.0388
1506.56	20.5756
1509.26	-9.26962
1511.96	5.34912
1514.65	-8.61252
1517.35	21.0211
1520.05	-17.4225
1522.74	4.84329
1525.43	6.91837
1528.13	20.7253
1530.82	3.5137
1533.51	30.3771
1536.2	2.29919
1538.88	-2.26639
1541.57	-0.361664
1544.25	12.1959
1546.94	10.5308
1549.62	8.742
1552.31	8.99567
1554.99	32.8757
1557.67	15.6235
1560.35	-2.59418
1563.03	-5.68158
1565.71	6.31827
1568.38	31.2328
1571.06	13.0185
1573.73	9.91138
1576.41	32.6884
1579.08	3.92908
1581.75	26.8445
1584.42	-4.0318
1587.09	16.792
1589.76	13.958
1592.43	13.3252
1595.09	27.8274
1597.76	-11.5309
1600.42	18.1474
1603.09	14.457
1605.75	11.8712
1608.41	26.6996
1611.07	10.1809
1613.73	36.0665
1616.39	32.7082
1619.05	5.38849
1621.7	-4.56647
1624.36	21.5494
1627.01	3.88593
1629.67	22.407
1632.32	33.2548
1634.97	14.2683
1637.62	17.2198
1640.27	5.50119
1642.92	4.93973
1645.57	8.81427
1648.22	8.21689
1650.86	23.0865
1653.51	19.1153
1656.15	8.42255
1658.79	13.1957
1661.43	11.2918
1664.07	-1.70801
1666.71	7.43225
1669.35	-11.1569
1671.99	2.40613
1674.63	15.9677
1677.26	5.07001
1679.9	20.837
1682.53	14.3109
1685.16	-5.55508
1687.79	6.71552
1690.43	26.761
1693.05	12.5419
1695.68	1.73114
1698.31	-4.53699
1700.94	2.69028
1703.56	9.50192
1706.19	26.1155
1708.81	-2.98788
1711.44	5.63028
1714.06	14.777
1716.68	16.4534
1719.3	-6.12091
1721.92	5.59927
1724.53	-11.8819
1727.15	-1.22171
1729.77	1.59525
1732.38	16.7753
1735	-1.76352
1737.61	11.1583
1740.22	-9.6933
1742.83	7.75031
1745.44	12.8118
1748.05	8.78043
1750.66	9.22443
1753.27	3.98465
1755.87	5.50079
1758.48	18.2586
1761.08	-2.99203
1763.69	22.1787
1766.29	-0.187347
1768.89	8.03848
1771.49	7.21402
1774.09	10.9308
1776.69	-0.0458984
1779.29	26.4713
1781.88	4.23065
1784.48	-4.38831
1787.07	17.7246
1789.66	5.7905
1792.26	4.07944
1794.85	-5.61188
1797.44	-3.88089
1800.03	-5.51788
1802.62	14.6028
1805.21	21.0237
1807.79	14.7658
1810.38	7.27554
1812.96	3.22205
1815.55	8.38077
1818.13	4.33459
1820.71	-4.37775
1823.29	18.1562
1825.87	7.15762
1828.45	3.09473
1831.03	-7.91986
1833.61	7.75156
1836.18	20.027
1838.76	-1.56668
1841.33	-3.40796
1843.91	6.3985
1846.48	-16.4952
1849.05	8.47537
1851.62	7.76663
1854.19	-15.3114
1856.76	-14.8812
1859.33	-7.40964
1861.89	4.82468
1864.46	4.13965
1867.02	1.16974
1869.59	0.472595
1872.15	-20.3019
1874.71	4.82343
1877.27	-6.57358
1879.83	-0.320709
1882.39	4.77911
1884.95	8.64218
1887.51	6.61533
1890.06	-0.272095
1892.62	-22.5563
1895.17	9.53552
1897.73	3.84198
1900.28	-6.51828
1902.83	-1.35818
1905.38	3.86816
1907.93	-2.75864
1910.48	7.34708
1913.03	13.9877
1915.57	-16.2325
1918.12	7.06638
1920.66	15.6405
1923.21	-8.97852
1925.75	-9.69821
1928.29	-6.82837
1930.83	9.22174
1933.37	-1.09216
1935.91	-5.45157
1938.45	6.9765
1940.99	-3.44882
1943.53	-12.71
1946.06	-11.1777
1948.6	-0.0232849
1951.13	12.2896
1953.66	13.7389
1956.19	7.94241
1958.73	3.33334
1961.26	10.7644
1963.78	25.4084
1966.31	1.46893
1968.84	12.4206
1971.36	-1.96051
1973.89	5.33505
1976.41	3.00488
1978.94	21.1385
1981.46	-7.6796
1983.98	-1.58264
1986.5	-6.30374
1989.02	-11.0084
1991.54	-0.0746155
1994.06	1.25363
1996.58	-20.2408
1999.09	13.589
2001.61	-5.45532
2004.12	-20.8686
2006.63	5.84634
2009.15	3.70938
2011.66	-8.01129
2014.17	1.91397
2016.68	19.0851
2019.19	-9.5817
2021.69	11.1852
2024.2	1.88831
2026.71	7.09045
2029.21	12.3302
2031.72	1.91458
2034.22	6.03357
2036.72	-9.22562
2039.22	-25.7165
2041.72	-4.61865
2044.22	11.675
2046.72	7.35114
2049.22	11.5472
2051.71	-18.3828
2054.21	-0.95752
2056.71	-17.5313
2059.2	0.0910645
2061.69	-6.71204
2064.18	-6.18201
2066.68	-11.768
2069.17	-5.12646
2071.66	-13.2137
2074.14	11.8959
2076.63	-8.52008
2079.12	14.148
2081.6	4.76901
2084.09	-14.5369
2086.57	10.5737
2089.06	-1.4046
2091.54	10.1922
2094.02	-0.444824
2096.5	7.55301
2098.98	15.5629
2101.46	-4.97473
2103.93	35.4324
2106.41	-7.52072
2108.89	3.08289
2111.36	18.7348
2113.84	5.68134
2116.31	7.63034
2118.78	4.56262
2121.25	12.7934
2123.72	32.3679
2126.19	28.029
2128.66	23.6577
2131.13	15.458
2133.59	0.881317
2136.06	7.79645
2138.53	26.1313
2140.99	26.7072
2143.45	33.6409
2145.92	3.62979
2148.38	6.65845
2150.84	19.8435
2153.3	25.3745
2155.76	35.9877
2158.21	23.5982
2160.67	20.1125
2163.13	16.5912
2165.58	21.9815
2168.04	47.8011
2170.49	17.4064
2172.94	4.96246
2175.39	21.9373
2177.84	36.3385
2180.29	23.7787
2182.74	20.1718
2185.19	26.7432
2187.64	11.6144
2190.08	28.5254
2192.53	17.3136
2194.98	25.3167
2197.42	15.4524
2199.86	32.5465
2202.3	38.1524
2204.74	47.655
2207.18	25.0674
2209.62	29.4955
2212.06	33.9588
2214.5	33.2777
2216.93	14.5631
2219.37	48.8172
2221.81	27.5011
2224.24	15.2016
2226.67	32.718
2229.11	32.0881
2231.54	32.7562
2233.97	58.1776
2236.4	56.2691
2238.83	58.2733
2241.25	64.1959
2243.68	60.9856
2246.1	40.7271
2248.53	54.541
2250.96	52.6096
2253.38	48.0268
2255.8	57.9306
2258.22	59.9793
2260.64	34.2743
2263.06	48.1473
2265.48	42.1446
2267.9	48.023
2270.32	55.1985
2272.73	58.3712
2275.15	44.2486
2277.56	64.64
2279.98	57.0944
2282.39	56.1392
2284.8	59.1296
2287.21	58.0966
2289.62	58.4201
2292.03	57.3935
2294.44	56.3659
2296.85	63.3614
2299.26	59.7756
2301.66	56.1985
2304.07	39.3512
2306.47	47.8868
2308.88	67.1551
2311.28	58.4462
2313.68	51.0699
2316.08	70.5148
2318.48	67.2406
2320.88	63.9407
2323.28	92.8936
2325.68	58.69
2328.07	60.7938
2330.47	29.1606
2332.86	52.9185
2335.26	78.106
2337.65	54.5536
2340.04	58.0983
2342.43	49.4488
2344.82	59.8623
2347.21	48.5372
2349.6	31.6133
2351.99	29.7202
2354.38	48.3615
2356.76	36.743
2359.15	48.4802
2361.53	28.382
2363.92	38.675
2366.3	50.3702
2368.68	37.2065
2371.06	29.534
2373.44	42.6099
2375.82	41.8432
2378.2	35.5285
2380.58	29.1114
2382.95	28.2322
2385.33	16.1563
2387.71	19.3704
2390.08	51.7681
2392.45	17.3287
2394.83	35.7699
2397.2	6.82907
2399.57	33.5694
2401.94	31.0921
2404.31	24.3869
2406.68	37.1858
2409.04	11.1163
2411.41	24.1822
2413.78	13.6718
2416.14	6.20386
2418.51	29.8113
2420.87	26.4889
2423.23	18.6521
2425.59	17.6906
2427.95	36.6653
2430.31	19.042
2432.67	32.4576
2435.03	21.9105
2437.39	-2.80334
2439.75	14.9365
2442.1	9.99805
2444.46	12.1562
2446.81	25.7194
2449.16	12.2204
2451.52	-1.32059
2453.87	20.8477
2456.22	18.7211
2458.57	-2.0593
2460.92	-1.35519
2463.27	-13.5958
2465.61	20.2294
2467.96	29.5997
2470.3	4.29633
2472.65	19.4233
2474.99	20.1107
2477.34	3.4101
2479.68	-1.72607
2482.02	14.9185
2484.36	12.6561
2486.7	3.05743
2489.04	24.0849
2491.38	21.7732
2493.72	12.1471
2496.05	21.5536
2498.39	3.10889
2500.72	18.3487
2503.06	-3.09109
2505.39	3.32944
2507.72	22.9768
2510.06	5.85089
2512.39	31.3796
2514.72	6.83398
2517.04	11.7379
2519.37	6.36093
2521.7	-3.43369
2524.03	5.95581
2526.35	-6.84204
2528.68	9.95081
2531	-2.85745
2533.33	21.4086
2535.65	1.21805
2537.97	0.30777
2540.29	6.83679
2542.61	-0.0131226
2544.93	0.574738
2547.25	8.65115
2549.57	4.77866
2551.88	0.904755
2554.2	4.49438
2556.51	0.558136
2558.83	-6.39603
2561.14	-8.80534
2563.46	5.30313
2565.77	17.9856
2568.08	11.1116
2570.39	-1.78799
2572.7	7.92392
2575.01	2.52502
2577.31	25.8528
2579.62	0.703369
2581.93	5.80994
2584.23	6.29895
2586.54	-5.3717
2588.84	7.22729
2591.15	-3.05307
2593.45	6.52615
2595.75	-5.16476
2598.05	4.50461
2600.35	-16.346
2602.65	13.0984
2604.95	7.46103
2607.24	0.27832
2609.54	0.72699
2611.84	8.75577
2614.13	-6.12697
2616.42	9.56802
2618.72	2.34792
2621.01	21.1255
2623.3	7.77168
2625.59	3.61755
2627.88	8.66914
2630.17	10.7272
2632.46	-5.59476
2634.75	11.9173
2637.04	-12.0567
2639.32	11.781
2641.61	0.115372
2643.89	-0.728867
2646.18	-6.21085
2648.46	5.32816
2650.74	15.348
2653.02	23.8527
2655.3	4.15417
2657.58	-7.81126
2659.86	2.05632
2662.14	8.79158
2664.42	13.9419
2666.69	-2.83885
2668.97	-3.89879
2671.24	-25.3447
2673.52	-12.2165
2675.79	5.74153
2678.06	14.4741
2680.33	-6.65758
2682.61	-13.7473
2684.88	14.052
2687.15	14.9306
2689.41	25.3579
2691.68	-8.99353
2693.95	2.93558
2696.22	16.1413
2698.48	-7.33531
2700.74	-6.79068
2703.01	-4.66103
2705.27	-4.15707
2707.53	1.17519
2709.8	4.88484
2712.06	11.8186
2714.32	-31.2419
2716.57	6.46785
2718.83	3.72829
2721.09	5.86372
2723.35	-1.75233
2725.6	-14.293
2727.86	5.5947
2730.11	-10.2392
2732.37	-0.153595
2734.62	-6.26904
2736.87	18.4515
2739.12	-0.717484
2741.37	-3.56606
2743.62	-1.53499
2745.87	-9.24821
2748.12	12.3913
2750.37	1.48163
2752.61	5.43468
2754.86	-3.82356
2757.1	9.77603
2759.35	-6.15964
2761.59	9.00964
2763.83	9.48401
2766.08	-6.45544
2768.32	7.20369
2770.56	-26.9315
2772.8	-5.02748
2775.04	-7.80646
2777.27	4.32146
2779.51	-1.72003
2781.75	13.8608
2783.98	11.1952
2786.22	5.2095
2788.45	2.5191
2790.68	-1.86215
2792.92	13.7892
2795.15	22.7766
2797.38	4.91238
2799.61	3.78917
2801.84	-9.13554
2804.07	1.44464
2806.3	8.65753
2808.52	-4.35835
2810.75	6.21268
2812.98	-0.0975494
2815.2	10.4409
2817.42	17.6168
2819.65	-14.1207
2821.87	13.3869
2824.09	-3.13033
2826.31	-1.01073
2828.53	1.09821
2830.75	13.3988
2832.97	3.597
2835.19	2.27721
2837.41	-9.25647
2839.62	-22.5113
2841.84	20.502
2844.05	7.2583
2846.27	2.56807
2848.48	-10.686
2850.69	-13.6746
2852.9	2.21207
2855.12	1.00133
2857.33	10.0964
2859.54	-10.0413
2861.74	0.804794
2863.95	9.97858
2866.16	-4.98334
2868.37	-7.88478
2870.57	-2.13693
2872.78	17.507
2874.98	19.8333
2877.18	16.948
2879.39	-5.11778
2881.59	25.1685
2883.79	-12.6864
2885.99	3.68845
2888.19	-6.25056
2890.39	6.63838
2892.59	12.5103
2894.78	-4.55255
2896.98	-12.7821
2899.18	10.8521
2901.37	-9.83057
2903.57	10.2592
2905.76	-6.99626
2907.95	-17.1781
2910.15	-2.40033
2912.34	-14.4735
2914.53	-17.6282
2916.72	9.66132
2918.91	15.5186
2921.09	-0.162994
2923.28	-15.8831
2925.47	11.6071
2927.65	3.11574
2929.84	-1.78743
2932.02	-13.9332
2934.21	8.25191
2936.39	6.88835
2938.57	-7.22379
2940.75	2.23624
2942.94	-8.27931
2945.12	3.00381
2947.29	-5.77869
2949.47	-1.80125
2951.65	25.9018
2953.83	8.0032
2956	-11.751
2958.18	15.9861
2960.36	7.18658
2962.53	9.36639
2964.7	6.05659
2966.88	-8.2411
2969.05	10.4751
2971.22	20.0444
2973.39	2.05428
2975.56	2.43393
2977.73	2.81165
2979.9	5.0327
2982.06	5.43759
2984.23	-8.91225
2986.4	-6.63361
2988.56	1.22374
2990.73	-0.166229
2992.89	4.02998
2995.05	8.22084
2997.21	-15.4975
2999.38	7.37674
3001.54	-5.18262
3003.7	8.44389
3005.86	-15.3906
3008.01	13.2903
3010.17	0.655441
3012.33	-4.52524
3014.49	3.54649
3016.64	13.549
3018.8	0.867813
3020.95	14.7066
3023.1	7.64853
3025.26	4.33922
3027.41	-18.0858
3029.56	1.41783
3031.71	-3.89531
3033.86	2.22906
3036.01	31.3233
3038.16	16.3396
3040.31	-2.41493
3042.45	1.79431
3044.6	4.0695
3046.74	0.567291
3048.89	12.4642
3051.03	14.7385
3053.18	11.2265
3055.32	11.5898
3057.46	4.22105
3059.6	4.56648
3061.74	14.5933
3063.88	1.37967
3066.02	25.0018
3068.16	-1.8195
3070.3	12.1207
3072.43	18.3051
3074.57	8.93608
3076.7	13.1917
3078.84	13.5562
3080.97	-1.70052
3083.1	-1.35417
3085.24	12.7304
3087.37	-16.2349
3089.5	9.67268
3091.63	-1.6424
3093.76	34.2343
3095.89	24.9399
3098.02	-4.12625
3100.14	22.0536
3102.27	22.5997
3104.4	9.28426
3106.52	29.7169
3108.65	0.455231
3110.77	18.9747
3112.89	21.5824
3115.01	24.177
3117.14	32.8169
3119.26	5.29317
3121.38	42.1651
3123.5	16.6017
3125.62	33.439
3127.73	23.999
3129.85	4.36879
3131.97	27.4681
3134.08	32.2779
3136.2	28.9133
3138.31	25.5144
3140.43	34.4179
3142.54	49.5253
3144.65	33.6756
3146.76	21.8828
3148.87	30.7817
3150.98	33.4296
3153.09	27.7058
3155.2	32.3855
3157.31	60.0241
3159.42	35.4854
3161.52	52.7494
3163.63	51.1968
3165.73	55.9025
3167.84	35.3779
3169.94	31.621
3172.05	61.6613
3174.15	45.2657
3176.25	28.7706
3178.35	69.3165
3180.45	46.4112
3182.55	50.9843
3184.65	74.6245
3186.75	55.8728
3188.84	70.976
3190.94	41.6246
3193.04	41.9926
3195.13	31.7394
3197.23	36.4298
3199.32	32.6778
3201.41	69.6022
3203.51	44.5564
3205.6	45.1747
3207.69	67.3253
3209.78	48.6542
3211.87	47.1743
3213.96	39.2199
3216.05	65.9155
3218.13	38.4261
3220.22	62.9906
3222.31	37.5376
3224.39	51.2821
3226.48	41.027
3228.56	54.8301
3230.64	53.2898
3232.73	34.1577
3234.81	30.3225
3236.89	44.1503
3238.97	49.2112
3241.05	54.3279
3243.13	43.9108
3245.21	46.8824
3247.29	49.7404
3249.36	7.92139
3251.44	46.4445
3253.52	20.073
3255.59	13.7649
3257.66	14.188
3259.74	37.2326
3261.81	3.98518
3263.88	31.6327
3265.95	11.9256
3268.03	19.6037
3270.1	20.0593
3272.17	13.9988
3274.23	14.4813
3276.3	3.4288
3278.37	6.1237
3280.44	24.8324
3282.5	18.3738
3284.57	2.72447
3286.63	32.9712
3288.7	14.9979
3290.76	29.1975
3292.82	24.9881
3294.88	16.1562
3296.94	23.4549
3299	14.6174
3301.06	15.0605
3303.12	6.19524
3305.18	1.96382
3307.24	-6.91653
3309.3	18.9887
3311.35	-3.84833
3313.41	12.7818
3315.46	8.53604
3317.52	-5.05775
3319.57	-4.65379
3321.63	-1.91238
3323.68	19.5688
3325.73	-5.70358
3327.78	6.47571
3329.83	-7.13022
3331.88	0.456757
3333.93	-10.7506
3335.98	18.0775
3338.02	21.0243
3340.07	2.58559
3342.12	10.1337
3344.16	15.2944
3346.21	29.9632
3348.25	-2.91545
3350.3	2.24379
3352.34	16.9072
3354.38	5.39461
3356.42	5.84161
3358.46	-10.4252
3360.5	6.72249
3362.54	-11.9616
3364.58	21.9792
3366.62	-6.34593
3368.66	1.27444
3370.69	-10.3043
3372.73	-9.90872
3374.76	14.5431
3376.8	10.1084
3378.83	3.24973
3380.87	10.8517
3382.9	-15.3342
3384.93	16.4085
3386.96	-9.81526
3388.99	-4.63977
3391.02	-1.88918
3393.05	5.70918
3395.08	-3.61458
3397.11	-5.66266
3399.14	9.26923
3401.16	4.78186
3403.19	14.8287
3405.21	3.01537
3407.24	-3.93784
3409.26	13.418
3411.29	-0.865585
3413.31	-29.7505
3415.33	-0.224991
3417.35	7.4088
3419.37	-6.88844
3421.39	-11.4507
3423.41	1.04871
3425.43	20.8839
3427.45	11.4757
3429.46	4.51122
3431.48	12.2117
3433.5	-2.07272
3435.51	-4.12822
3437.53	-8.62357
3439.54	-5.76208
3441.55	-15.1619
3443.57	17.1842
3445.58	10.2938
3447.59	15.722
3449.6	-1.03268
3451.61	-0.55217
3453.62	12.3142
3455.63	0.487213
3457.64	10.9659
3459.64	9.06833
3461.65	-7.76047
3463.66	15.2314
3465.66	3.34848
3467.67	-8.57768
3469.67	9.50549
3471.67	-17.5312
3473.68	-4.53247
3475.68	3.54648
3477.68	6.60411
3479.68	7.14615
3481.68	25.3772
3483.68	5.68478
3485.68	-6.46463
3487.68	4.1915
3489.67	-15.6319
3491.67	0.124985
3493.67	-4.47653
3495.66	13.8538
3497.66	19.4442
3499.65	-20.9968
3501.64	10.1395
3503.64	2.87726
3505.63	3.3
3507.62	3.68791
3509.61	4.04263
3511.6	4.3779
3513.59	7.28197
3515.58	5.0463
3517.57	-25.4642
3519.56	3.13478
3521.54	8.60428
3523.53	11.5092
3525.52	-13.8737
3527.5	4.48885
3529.49	7.37378
3531.47	10.328
3533.45	8.17656
3535.43	6.04242
3537.42	3.93216
3539.4	7.01065
3541.38	-8.07077
3543.36	2.72319
3545.34	-7.23178
3547.32	6.15436
3549.29	19.5435
3551.27	6.92287
3553.25	-8.39548
3555.22	7.54799
3557.2	0.110046
3559.17	3.08859
3561.15	-14.7567
3563.12	-11.7605
3565.09	12.1228
3567.07	-21.3796
3569.04	-0.00909424
3571.01	3.04237
3572.98	13.9699
3574.95	1.33119
3576.92	-0.818573
3578.88	12.8211
3580.85	0.176651
3582.82	0.690689
3584.79	-6.71788
3586.75	4.3644
3588.72	7.52673
3590.68	2.73694
3592.64	0.58728
3594.61	14.3938
3596.57	-17.0569
3598.53	-0.580719
3600.49	13.2455
3602.45	-4.98975
3604.41	0.82753
3606.37	9.3233
3608.33	-9.01558
3610.29	4.83765
3612.25	5.27016
3614.2	3.02599
3616.16	3.43845
3618.12	1.16582
3620.07	-3.83893
3622.02	1.91751
3623.98	4.94434
3625.93	5.26288
3627.88	-2.53029
3629.84	-4.92819
3631.79	6.17749
3633.74	-12.4637
3635.69	9.5014
3637.64	1.71794
3639.58	-0.629044
3641.53	-0.235367
3643.48	-5.25925
3645.43	6.01427
3647.37	11.9074
3649.32	-15.0353
3651.26	-1.08875
3653.21	4.70164
3655.15	5.0248
3657.09	-2.82973
3659.03	11.1263
3660.98	-2.20062
3662.92	-7.36125
3664.86	6.60535
3666.8	-1.26326
3668.74	-11.8728
3670.67	-8.82768
3672.61	2.43224
3674.55	2.78351
3676.49	-7.81686
3678.42	0.783279
3680.36	1.17368
3682.29	1.58034
3684.23	-6.25586
3686.16	-3.06992
3688.09	2.88193
3690.02	6.08641
3691.96	3.76537
3693.89	-12.4468
3695.82	15.6902
3697.75	-3.31548
3699.68	-19.602
3701.61	-16.4205
3703.53	9.06081
3705.46	15.084
3707.39	4.33345
3709.31	7.5571
3711.24	2.36584
3713.16	11.2053
3715.09	17.2274
3717.01	-2.09409
3718.93	6.72073
3720.86	-9.85068
3722.78	1.78194
3724.7	19.0791
3726.62	19.4188
3728.54	-8.5573
3730.46	11.6012
3732.38	-10.7473
3734.29	3.77342
3736.21	-7.26282
3738.13	1.58858
3740.04	7.59991
3741.96	-3.48997
3743.87	8.21959
3745.79	11.3743
3747.7	8.8103
3749.62	11.9475
3751.53	15.0735
3753.44	3.8847
3755.35	-15.9135
3757.26	18.6664
3759.17	4.5677
3761.08	1.91267
3762.99	13.5828
3764.9	5.18799
3766.81	2.52577
3768.71	5.61046
3770.62	-17.1157
3772.52	8.93498
3774.43	-5.19579
3776.33	12.2585
3778.24	-16.2461
3780.14	-1.63596
3782.04	1.49124
3783.95	-1.12656
3785.85	-0.869125
3787.75	5.14795
3789.65	-6.157
3791.55	-0.144714
3793.45	5.89078
3795.34	-5.41025
3797.24	12.2376
3799.14	-4.87253
3801.04	9.91115
3802.93	4.38881
3804.83	1.7683
3806.72	16.618
3808.62	-3.48639
3810.51	14.2959
3812.4	11.6521
3814.29	-2.69972
3816.19	6.33498
3818.08	15.3867
3819.97	6.84845
3821.86	7.09412
3823.75	4.39183
3825.64	-1.27253
3827.52	4.83369
3829.41	8.01021
3831.3	11.2034
3833.18	2.59601
3835.07	2.82561
3836.95	11.9153
3838.84	9.17615
3840.72	-14.278
3842.61	-5.16127
3844.49	15.794
3846.37	-7.77839
3848.25	-7.64631
3850.13	-16.413
3852.01	13.4339
3853.89	-4.27524
3855.77	4.77243
3857.65	4.87262
3859.53	-6.92943
3861.41	8.04447
3863.28	5.19356
3865.16	-9.4948
3867.03	8.59618
3868.91	8.86747
3870.78	9.08418
3872.66	6.20036
3874.53	3.33812
3876.4	3.46252
3878.27	-2.39384
3880.14	-8.25263
3882.01	-8.13055
3883.89	-2.01842
3885.75	-1.88317
3887.62	-4.7384
3889.49	-1.6001
3891.36	-4.44809
3893.23	-1.2803
3895.09	-7.08149
3896.96	-0.899605
3898.82	2.28017
3900.69	5.46939
3902.55	-15.446
3904.42	-3.23589
3906.28	-0.0488205
3908.14	-2.91503
3910	-17.8552
3911.87	-2.56241
3913.73	-5.41235
3915.59	9.92386
3917.45	7.10461
3919.3	4.29188
3921.16	-1.54989
3923.02	7.80981
3924.88	14.1351
3926.73	-3.93628
3928.59	17.6456
3930.45	-15.7542
3932.3	8.89919
3934.15	12.1399
3936.01	0.0686035
3937.86	-5.89489
3939.71	9.63667
3941.56	9.84846
3943.42	0.859573
3945.27	13.378
3947.12	-14.1258
3948.97	-4.68459
3950.81	-1.41307
3952.66	-1.22894
3954.51	-1.05042
3956.36	-7.05386
3958.2	11.6737
3960.05	2.54654
3961.9	2.70368
3963.74	-0.235603
3965.58	-3.18646
3967.43	-9.246
3969.27	12.576
3971.11	-2.78189
3972.96	-8.83772
3974.8	-8.68967
3976.64	-2.33955
3978.48	10.2125
3980.32	-11.362
3982.16	10.48
3984	1.3159
3985.83	7.66631
3987.67	-10.7954
3989.51	-4.43356
3991.34	5.04752
3993.18	-10.2683
3995.01	2.34771
3996.85	5.68115
3998.68	-18.9269
