#Acq. time (s)=	30
#Accumulations=	2
#Range (cm-¹)=	1200...2365
#Windows=	3
#Auto scanning=	Off
#Autofocus=	Off
#Macrospot=	Off
#AutoExposure=	Off
#Spike filter=	Multiple accum.
#Delay time (s)=	2
#Binning=	1
#Readout mode=	Signal
#DeNoise=	Off
#ICS correction=	On
#Dark correction=	Off
#Inst. Process=	Off
#Detector Gain=	Best Dynamic
#Detector ADC=	50 kHz HS
#Detector temperature (°C)=	-60.09
#Instrument=	LabRAM HR Evol
#Detector=	SIN-EM FIVIS
#Objective=	x100_VIS_LWD
#Grating=	1800 (450-850nm)
#ND Filter=	100%
#Laser=	532nm_Edge
#Hole=	100.021
#Temperature=	0
#Range=	Visible
#StageXY=	75x50mm Scan+
#StageZ=	Z motor
#X (µm)=	0
#Y (µm)=	0
#Z (µm)=	-16.9
#Full time(mm:ss)=	3:18
#Project=	21_11_26
#Sample=	BU19(2)w
#Site=	
#Title=	BU19(2)w-A-FF1-FI06-V_1800 (450-850nm)_532nm_Edge_100%_x100_VIS_LWD_H100um_30sX2
#Remark=	
#Date=	26.11.2021 13:46
#Acquired=	26.11.2021 13:46:13
#Base:Fit=	16.12.2021 16:00:56
#Base:Fit=	16.12.2021 16:07:48
#Base:Sub=	16.12.2021 16:07:50
1202.72	6.9111
1203	2.2325
1203.28	-3.73155
1203.56	4.142
1203.84	3.36761
1204.11	3.71243
1204.39	2.994
1204.67	5.57283
1204.95	1.70964
1205.23	10.6883
1205.5	1.36034
1205.78	2.76891
1206.06	-3.35168
1206.34	8.76918
1206.61	3.71657
1206.89	7.24088
1207.17	4.33153
1207.45	7.85979
1207.73	0.696762
1208	-1.11107
1208.28	-0.76799
1208.56	3.84518
1208.84	0.947403
1209.11	1.26097
1209.39	3.71414
1209.67	0.837769
1209.95	-0.959106
1210.23	2.5775
1210.5	5.02246
1210.78	-4.3253
1211.06	0.217285
1211.34	4.76588
1211.61	-4.57268
1211.89	5.30609
1212.17	-4.0385
1212.45	2.61453
1212.72	-2.44505
1213	-2.18063
1213.28	3.40474
1213.56	0.481125
1213.83	-6.69231
1214.11	5.28293
1214.39	1.32794
1214.67	-7.95718
1214.94	-1.27965
1215.22	0.068222
1215.5	-3.91484
1215.78	4.87227
1216.05	0.876541
1216.33	1.10857
1216.61	-0.805557
1216.89	6.83757
1217.16	-0.404099
1217.44	-4.44157
1217.72	1.08606
1218	-15.6961
1218.27	2.57346
1218.55	-8.88921
1218.83	-0.183075
1219.1	-1.01875
1219.38	-2.91095
1219.66	4.73981
1219.94	-0.349045
1220.21	0.917221
1220.49	-0.979187
1220.77	-1.81209
1221.04	-4.77765
1221.32	-4.57053
1221.6	-7.55836
1221.88	1.11349
1222.15	6.58258
1222.43	-4.92033
1222.71	8.98788
1222.98	-1.46881
1223.26	0.780472
1223.54	-2.25848
1223.81	-0.00657654
1224.09	6.47749
1224.37	1.33607
1224.65	12.052
1224.92	-4.68106
1225.2	1.82062
1225.48	2.00142
1225.76	4.31419
1226.03	-6.0473
1226.31	13.1566
1226.59	-10.962
1226.86	5.03911
1227.14	5.18188
1227.42	3.21436
1227.69	0.13942
1227.97	-6.15999
1228.25	5.50365
1228.52	2.41876
1228.8	4.53951
1229.08	16.1404
1229.35	-1.58081
1229.63	8.40919
1229.91	6.77673
1230.18	-6.92805
1230.46	9.94508
1230.74	1.60886
1231.01	10.1944
1231.29	7.08563
1231.57	13.2298
1231.84	1.83633
1232.12	-4.33633
1232.4	-1.05556
1232.67	6.41333
1232.95	1.2861
1233.23	6.65839
1233.5	9.92113
1233.78	13.1927
1234.06	3.86909
1234.33	7.15488
1234.61	8.33958
1234.89	5.32642
1235.16	12.8237
1235.44	6.64252
1235.71	12.0246
1235.99	4.79468
1236.27	9.12134
1236.54	3.96893
1236.82	13.5177
1237.1	15.6994
1237.37	11.5637
1237.65	10.5621
1237.93	8.5063
1238.2	7.50053
1238.48	9.64149
1238.76	12.8288
1239.03	-3.90121
1239.31	4.55495
1239.58	-2.71362
1239.86	8.89198
1240.14	-0.464584
1240.41	6.95406
1240.69	3.89337
1240.97	-4.40521
1241.24	12.456
1241.52	10.4449
1241.79	3.17276
1242.07	16.8486
1242.35	7.47585
1242.62	4.40977
1242.9	14.9723
1243.18	7.7298
1243.45	17.2552
1243.73	12.0816
1244	5.86148
1244.28	11.1802
1244.56	17.5345
1244.83	1.86534
1245.11	14.493
1245.39	8.23457
1245.66	10.354
1245.94	11.409
1246.21	17.6995
1246.49	12.5011
1246.76	9.40562
1247.04	7.36864
1247.32	15.7939
1247.59	12.6944
1247.87	5.41718
1248.14	24.2896
1248.42	14.8643
1248.7	9.65404
1248.97	7.60326
1249.25	4.52167
1249.52	10.8541
1249.8	21.3483
1250.08	20.3413
1250.35	9.92731
1250.63	10.9839
1250.9	8.89525
1251.18	10.9929
1251.45	15.1825
1251.73	14.1492
1252.01	16.2495
1252.28	13.1245
1252.56	12.0878
1252.83	13.1385
1253.11	2.70221
1253.39	7.92632
1253.66	11.0746
1253.94	19.4544
1254.21	21.5976
1254.49	17.4821
1254.76	12.3243
1255.04	16.5418
1255.31	12.3923
1255.59	3.03224
1255.87	17.6776
1256.14	6.20857
1256.42	15.6375
1256.69	22.9836
1256.97	7.36234
1257.24	9.48051
1257.52	16.8053
1257.79	13.6707
1258.07	24.1195
1258.35	28.3029
1258.62	22.0429
1258.9	17.8666
1259.17	14.7158
1259.45	9.50993
1259.72	16.8496
1260	18.9753
1260.27	16.9657
1260.55	28.4252
1260.82	24.2226
1261.1	21.0463
1261.37	24.1492
1261.65	34.5653
1261.92	38.7731
1262.2	36.8522
1262.48	44.4093
1262.75	37.21
1263.02	54.688
1263.3	62.8102
1263.58	72.1104
1263.85	67.1041
1264.13	50.5545
1264.4	49.6922
1264.68	30.9626
1264.95	31.907
1265.23	32.9148
1265.5	29.783
1265.78	33.9521
1266.05	17.2061
1266.33	22.4321
1266.6	20.3559
1266.88	27.6943
1267.15	24.5906
1267.43	18.3559
1267.7	22.5812
1267.98	16.3513
1268.25	25.8195
1268.53	15.4221
1268.8	20.713
1269.08	19.6949
1269.35	19.7184
1269.63	15.5446
1269.9	16.5802
1270.18	14.448
1270.45	20.681
1270.73	10.1737
1271	18.5074
1271.28	17.4293
1271.55	22.6462
1271.83	19.4805
1272.1	29.9508
1272.38	14.2841
1272.65	23.7433
1272.93	16.4673
1273.2	20.691
1273.47	15.4861
1273.75	22.857
1274.03	19.7462
1274.3	23.9748
1274.57	16.651
1274.85	20.8455
1275.12	15.5857
1275.4	27.1153
1275.67	14.5359
1275.95	20.8465
1276.22	24.0128
1276.5	18.7935
1276.77	19.8617
1277.05	27.232
1277.32	24.094
1277.6	27.2743
1277.87	20.9992
1278.14	19.9749
1278.42	30.5066
1278.69	38.9373
1278.97	29.511
1279.24	35.8372
1279.52	32.6974
1279.79	33.7275
1280.07	33.701
1280.34	46.2886
1280.61	58.8891
1280.89	76.7718
1281.16	79.9347
1281.44	101.019
1281.71	157.914
1281.99	196.888
1282.26	272.654
1282.53	353.737
1282.81	473.802
1283.08	606.319
1283.36	738.509
1283.63	836.543
1283.91	780.478
1284.18	692.175
1284.45	518.075
1284.73	328.727
1285	223.423
1285.28	143.32
1285.55	105.253
1285.83	75.6745
1286.1	59.8706
1286.37	48.3145
1286.65	47.2443
1286.92	19.8192
1287.2	42.9648
1287.47	27.1459
1287.75	29.2114
1288.02	22.8512
1288.29	23.8707
1288.57	24.9055
1288.84	17.5275
1289.12	28.0474
1289.39	21.7409
1289.66	13.3311
1289.94	12.2903
1290.21	10.1992
1290.49	22.85
1290.76	7.03214
1291.03	18.5866
1291.31	13.2955
1291.58	19.5966
1291.86	26.9513
1292.13	6.91873
1292.4	10.0635
1292.68	17.4299
1292.95	7.92603
1293.22	15.2704
1293.5	15.2622
1293.77	7.92184
1294.05	12.1822
1294.32	14.3393
1294.59	15.3957
1294.87	6.94405
1295.14	12.1902
1295.42	9.0377
1295.69	12.2496
1295.96	13.3721
1296.24	15.578
1296.51	12.4559
1296.79	15.627
1297.06	16.6727
1297.33	16.6404
1297.61	12.371
1297.88	9.15533
1298.15	6.99365
1298.43	10.1079
1298.7	7.99789
1298.97	4.80296
1299.25	5.81978
1299.52	1.56212
1299.79	8.91351
1300.07	9.95245
1300.34	17.354
1300.62	3.62921
1300.89	5.73029
1301.16	9.93219
1301.44	13.0796
1301.71	2.51404
1301.98	5.69176
1302.25	10.9812
1302.53	8.8672
1302.8	8.8575
1303.08	7.7851
1303.35	14.0992
1303.62	8.78796
1303.9	11.9154
1304.17	14.0082
1304.44	4.49464
1304.72	13.9851
1304.99	0.242661
1305.26	3.37975
1305.54	9.67534
1305.81	4.3515
1306.08	3.25134
1306.35	7.42346
1306.63	-5.27467
1306.9	4.1924
1307.18	-3.20288
1307.45	-2.14839
1307.72	1.00769
1308	2.04828
1308.27	0.980576
1308.54	2.03104
1308.81	3.0656
1309.09	2.00705
1309.36	10.4574
1309.63	0.97139
1309.91	-0.074646
1310.18	-0.0726929
1310.45	-1.14261
1310.73	2.00359
1311	-3.28339
1311.27	-6.45399
1311.55	0.930313
1311.82	5.14824
1312.09	3.03894
1312.37	11.4991
1312.64	3.06462
1312.91	0.952957
1313.18	-7.50987
1313.46	5.12856
1313.73	-3.33124
1314	2.98083
1314.28	6.12805
1314.55	2.95247
1314.82	13.5081
1315.09	6.12498
1315.37	-1.25594
1315.64	12.4798
1315.91	6.15521
1316.18	-3.33972
1316.46	-1.24084
1316.73	2.96724
1317	8.23419
1317.28	3.9986
1317.55	-1.28906
1317.82	-1.27617
1318.09	0.84317
1318.37	7.18382
1318.64	-3.38103
1318.91	-0.214798
1319.18	-4.44629
1319.46	-4.45624
1319.73	-2.35472
1320	1.86008
1320.28	2.9205
1320.55	5.02988
1320.82	-6.60361
1321.09	-11.9091
1321.37	-0.326477
1321.64	2.79659
1321.91	-1.47452
1322.18	-3.61426
1322.46	6.89218
1322.73	-3.67941
1323	0.516281
1323.27	-0.562729
1323.55	-5.86446
1323.82	12.0723
1324.09	-6.90408
1324.36	3.63972
1324.64	-5.85739
1324.91	0.468781
1325.18	-10.082
1325.45	4.6868
1325.73	-0.623505
1326	3.5269
1326.27	6.60226
1326.54	-0.87027
1326.81	2.2439
1327.09	4.33585
1327.36	-0.87915
1327.63	6.58295
1327.9	-2.84705
1328.18	5.631
1328.45	6.7411
1328.72	-1.63902
1328.99	7.89948
1329.27	-5.80244
1329.54	3.67575
1329.81	-4.74908
1330.08	-11.0844
1330.35	0.510117
1330.63	-0.56192
1330.9	-7.96857
1331.17	2.54501
1331.44	7.77426
1331.71	6.66512
1331.99	0.283859
1332.26	2.34314
1332.53	3.35828
1332.8	-4.04825
1333.07	-3.0406
1333.35	-7.29259
1333.62	4.22964
1333.89	2.08728
1334.16	11.5047
1334.43	12.5165
1334.71	-5.36966
1334.98	1.94937
1335.25	-2.27446
1335.52	16.5904
1335.79	-6.51508
1336.07	6.05301
1336.34	10.2283
1336.61	-0.275284
1336.88	2.85617
1337.15	-0.300247
1337.43	0.740067
1337.7	3.87807
1337.97	-8.70859
1338.24	-5.59183
1338.51	-12.9497
1338.78	-4.5829
1339.06	-2.50462
1339.33	1.6754
1339.6	-2.5105
1339.87	-7.73416
1340.14	6.94067
1340.42	-3.52109
1340.69	2.77489
1340.96	0.69249
1341.23	1.74457
1341.5	-8.7261
1341.77	-7.68033
1342.04	6.97159
1342.32	2.76895
1342.59	-4.5797
1342.86	10.0423
1343.13	-6.72551
1343.4	1.63264
1343.67	5.81458
1343.95	4.77315
1344.22	-2.53949
1344.49	1.65611
1344.76	5.84935
1345.03	3.7545
1345.3	-1.4868
1345.58	5.81001
1345.85	4.7296
1346.12	8.88295
1346.39	-2.64523
1346.66	11.9124
1346.93	1.4393
1347.2	-9.02437
1347.47	2.41876
1347.75	0.305664
1348.02	-0.750748
1348.29	0.285706
1348.56	-0.756729
1348.83	6.54053
1349.1	-0.764038
1349.37	-2.86092
1349.65	6.49954
1349.92	-9.1358
1350.19	4.38972
1350.46	-4.99208
1350.73	3.32349
1351	-1.90108
1351.27	-7.12407
1351.54	-2.97124
1351.81	-1.95242
1352.09	4.29016
1352.36	-4.01677
1352.63	5.37277
1352.9	-0.822693
1353.17	1.31506
1353.44	4.47408
1353.71	10.8598
1353.98	1.6317
1354.25	3.59779
1354.53	4.43964
1354.8	-1.92532
1355.07	4.33972
1355.34	8.52388
1355.61	-3.97704
1355.88	5.36156
1356.15	3.34872
1356.42	-2.85782
1356.69	6.47855
1356.96	1.28731
1357.24	-0.785339
1357.51	4.41039
1357.78	4.40869
1358.05	12.7092
1358.32	1.28198
1358.59	6.46321
1358.86	5.41847
1359.13	1.25693
1359.4	13.6949
1359.67	2.28259
1359.94	10.5785
1360.22	1.2276
1360.49	5.35014
1360.76	-2.96068
1361.03	0.140198
1361.3	7.39876
1361.57	0.164337
1361.84	-3.96529
1362.11	2.2605
1362.38	7.44102
1362.65	6.40909
1362.92	12.6268
1363.19	7.4642
1363.46	2.31573
1363.73	2.35968
1364	9.64748
1364.28	19.0089
1364.55	9.70436
1364.82	5.5715
1365.09	-5.81618
1365.36	1.42923
1365.63	9.70103
1365.9	13.8268
1366.17	5.53462
1366.44	8.62706
1366.71	2.40742
1366.98	-2.78235
1367.25	4.42796
1367.52	5.46062
1367.79	17.8692
1368.06	14.8105
1368.33	11.7431
1368.6	20.0437
1368.87	32.4806
1369.15	46.9865
1369.41	36.6846
1369.68	25.3448
1369.95	18.1104
1370.23	8.81119
1370.5	9.85051
1370.77	3.63449
1371.04	3.63878
1371.31	9.83391
1371.58	1.5535
1371.85	7.72459
1372.12	19.0424
1372.39	-0.595261
1372.66	9.69292
1372.93	18.9565
1373.2	21.0149
1373.47	21.0173
1373.74	9.68474
1374.01	22.0588
1374.28	17.9476
1374.55	4.56639
1374.82	13.8533
1375.09	20.0465
1375.36	8.72037
1375.63	9.78038
1375.9	7.76268
1376.17	7.78357
1376.44	17.0885
1376.71	12.9537
1376.98	8.82262
1377.25	20.1221
1377.52	19.0528
1377.79	12.9226
1378.06	8.86847
1378.33	14.1003
1378.6	17.291
1378.87	20.4936
1379.14	17.4522
1379.41	22.6268
1379.68	23.662
1379.95	14.3882
1380.22	24.6872
1380.49	19.4931
1380.76	15.2758
1381.03	22.4328
1381.3	24.4558
1381.57	27.5939
1381.84	17.2944
1382.11	24.4435
1382.38	35.6898
1382.65	39.7512
1382.92	41.7663
1383.19	37.6197
1383.46	39.6488
1383.73	50.9046
1384	52.9484
1384.27	72.4271
1384.54	80.6628
1384.81	108.392
1385.08	115.642
1385.34	156.771
1385.61	221.563
1385.88	290.46
1386.15	449.72
1386.42	717.833
1386.69	1136.05
1386.96	1587.12
1387.23	1880.88
1387.5	1575.52
1387.77	1046.76
1388.04	611.195
1388.31	365.502
1388.58	226.957
1388.85	145.561
1389.12	111.045
1389.39	96.8537
1389.66	74.3104
1389.93	56.9054
1390.2	41.4697
1390.46	51.6167
1390.73	44.3983
1391	30.0645
1391.27	21.8251
1391.54	36.1872
1391.81	25.9516
1392.08	21.8444
1392.35	17.7342
1392.62	25.9203
1392.89	19.7776
1393.16	26.9504
1393.43	23.8888
1393.7	22.8772
1393.97	10.6095
1394.23	5.50868
1394.5	17.8064
1394.77	22.9411
1395.04	18.8701
1395.31	15.845
1395.58	22.0394
1395.85	15.9447
1396.12	12.9093
1396.39	14.9802
1396.66	9.87805
1396.93	18.0766
1397.2	9.89896
1397.46	9.8999
1397.73	7.85565
1398	19.1215
1398.27	9.94283
1398.54	0.775131
1398.81	22.3028
1399.08	15.1806
1399.35	6.00882
1399.62	16.2944
1399.89	12.2456
1400.16	9.2177
1400.42	7.19785
1400.69	8.26981
1400.96	18.5737
1401.23	15.5484
1401.5	15.5712
1401.77	22.7869
1402.04	9.50046
1402.31	3.43105
1402.58	11.7383
1402.84	5.70222
1403.11	15.0282
1403.38	13.0516
1403.65	12.0762
1403.92	14.1596
1404.19	14.1577
1404.46	21.2838
1404.73	16.2055
1404.99	13.1429
1405.26	17.2574
1405.53	13.1568
1405.8	29.5652
1406.07	17.2617
1406.34	32.6427
1406.61	39.8289
1406.87	32.6692
1407.14	37.8306
1407.41	50.1724
1407.68	48.1665
1407.95	74.8619
1408.22	66.7006
1408.49	96.4759
1408.76	94.4675
1409.02	86.3092
1409.29	72
1409.56	52.5579
1409.83	41.3181
1410.1	47.5112
1410.37	19.8432
1410.63	30.0977
1410.9	18.8024
1411.17	22.8838
1411.44	4.42947
1411.71	12.6312
1411.98	1.37079
1412.25	9.59018
1412.51	5.54015
1412.78	10.7331
1413.05	9.82599
1413.32	4.89175
1413.59	13.2238
1413.86	15.1928
1414.12	3.74741
1414.39	8.93358
1414.66	2.8998
1414.93	1.96463
1415.2	-5.20241
1415.47	0.990189
1415.73	10.259
1416	0.024231
1416.27	-3.01701
1416.54	13.4531
1416.81	1.17165
1417.07	1.21358
1417.34	-4.90588
1417.61	9.52031
1417.88	5.45369
1418.15	16.7924
1418.42	2.43727
1418.68	-3.69507
1418.95	9.69868
1419.22	6.64511
1419.49	2.56479
1419.76	11.8264
1420.02	-5.63912
1420.29	-0.500931
1420.56	0.529099
1420.83	4.63675
1421.1	6.68784
1421.36	12.8481
1421.63	3.62541
1421.9	2.63414
1422.17	10.9109
1422.44	-4.41927
1422.7	3.87019
1422.97	-5.28082
1423.24	8.23001
1423.51	14.5598
1423.77	9.10347
1424.04	9.86026
1424.31	7.8745
1424.58	7.76656
1424.85	-0.401794
1425.11	3.76204
1425.38	3.88307
1425.65	4.95288
1425.92	-0.167374
1426.19	-5.2248
1426.45	2.9991
1426.72	13.258
1426.99	6.06929
1427.26	14.2587
1427.52	-5.22933
1427.79	1.91617
1428.06	1.89838
1428.33	-5.26448
1428.59	13.183
1428.86	7.06776
1429.13	5.05409
1429.4	-3.10095
1429.67	2.0607
1429.93	11.3262
1430.2	11.3826
1430.47	-5.97562
1430.74	6.37737
1431	-2.78329
1431.27	8.58289
1431.54	1.47316
1431.81	-0.531174
1432.07	4.62642
1432.34	-3.58272
1432.61	3.59392
1432.87	-1.53047
1433.14	6.65929
1433.41	1.50697
1433.68	-8.77154
1433.95	5.5453
1434.21	-0.607819
1434.48	2.47557
1434.75	-0.510864
1435.01	5.68916
1435.28	2.64534
1435.55	-5.52724
1435.82	8.84019
1436.08	-0.363937
1436.35	3.75058
1436.62	6.8391
1436.89	4.80162
1437.15	3.78806
1437.42	-3.36964
1437.69	-6.42205
1437.95	7.9261
1438.22	-3.32248
1438.49	2.85278
1438.76	9.04288
1439.02	-3.21387
1439.29	5.00949
1439.56	5.0401
1439.82	5.08455
1440.09	8.21362
1440.36	0.0739899
1440.63	0.113419
1440.89	9.3734
1441.16	8.37314
1441.43	4.30182
1441.69	3.28889
1441.96	-7.98865
1442.23	-3.87598
1442.49	-0.751282
1442.76	0.30011
1443.03	11.6308
1443.3	2.4054
1443.56	6.50641
1443.83	10.6099
1444.1	5.4922
1444.36	6.53423
1444.63	11.6906
1444.9	-1.57779
1445.16	2.57819
1445.43	6.74655
1445.7	0.600998
1445.97	1.63599
1446.23	2.672
1446.5	2.68219
1446.77	-0.383575
1447.03	-1.39813
1447.3	2.7148
1447.57	9.90027
1447.83	2.72655
1448.1	14.011
1448.37	4.80408
1448.63	7.92448
1448.9	2.84807
1449.17	9.03069
1449.43	-1.20741
1449.7	4.95544
1449.97	3.93272
1450.23	7.00677
1450.5	4.95412
1450.77	2.9124
1451.03	10.0967
1451.3	6.00577
1451.57	-0.135086
1451.83	-3.20275
1452.1	1.92752
1452.37	11.1578
1452.63	7.07304
1452.9	1.97147
1453.17	6.09531
1453.43	-1.04298
1453.7	6.16187
1453.97	9.25632
1454.23	6.1911
1454.5	-0.970673
1454.77	3.14674
1455.03	14.4374
1455.3	4.2047
1455.56	0.115555
1455.83	-3.96219
1456.1	10.4256
1456.36	6.35706
1456.63	-6.94958
1456.9	6.38115
1457.16	-1.82178
1457.43	14.5681
1457.7	0.232315
1457.96	2.29015
1458.23	12.5458
1458.49	9.4908
1458.76	7.46252
1459.03	-1.7329
1459.29	-5.8079
1459.56	3.43427
1459.82	5.50311
1460.09	-5.7555
1460.36	1.42456
1460.62	5.52942
1460.89	3.48598
1461.16	10.6576
1461.42	9.63161
1461.69	-3.68209
1461.95	1.43501
1462.22	2.45271
1462.49	-0.626068
1462.75	7.55016
1463.02	4.46695
1463.28	6.49747
1463.55	-4.76834
1463.82	7.48958
1464.08	-0.679047
1464.35	-0.623947
1464.61	6.61249
1464.88	-0.488953
1465.15	-1.43787
1465.41	3.59535
1465.68	0.305359
1465.94	-3.86797
1466.21	2.257
1466.48	-0.750732
1466.74	9.45848
1467.01	2.27002
1467.27	-4.87453
1467.54	8.41444
1467.8	-0.762085
1468.07	1.28267
1468.34	5.3708
1468.6	-1.75847
1468.87	10.4925
1469.13	0.297913
1469.4	2.33804
1469.67	3.3549
1469.93	7.42091
1470.2	-9.92698
1470.46	-0.76442
1470.73	9.42088
1470.99	2.28505
1471.26	3.30672
1471.53	-3.82983
1471.79	-9.953
1472.06	5.31828
1472.32	0.229309
1472.59	11.4372
1472.85	0.24469
1473.12	-2.80204
1473.39	4.32704
1473.65	1.26532
1473.92	-5.86744
1474.18	3.28862
1474.45	-3.83312
1474.71	5.3365
1474.98	-7.87105
1475.24	6.39729
1475.51	-6.82185
1475.78	-0.708092
1476.04	-12.9216
1476.31	7.42508
1476.57	3.35237
1476.84	6.40346
1477.1	1.30608
1477.37	-0.739143
1477.63	1.29427
1477.9	-3.78519
1478.16	-1.74464
1478.43	14.5198
1478.69	-1.76445
1478.96	5.34204
1479.22	-4.83161
1479.49	3.28613
1479.76	21.5584
1480.02	2.2357
1480.29	13.3885
1480.55	2.17963
1480.82	0.121109
1481.08	2.13406
1481.35	3.14546
1481.61	2.1172
1481.88	-9.02246
1482.14	11.2993
1482.41	4.22868
1482.67	1.21881
1482.94	-7.89028
1483.2	-7.8827
1483.47	-1.7677
1483.73	-2.76699
1484	-2.75894
1484.26	4.35243
1484.53	0.246445
1484.79	-4.88991
1485.06	1.06645
1485.32	-9.221
1485.59	-1.17893
1485.85	-1.26969
1486.12	-0.969589
1486.38	-1.94025
1486.65	-8.98233
1486.91	-0.999756
1487.18	-1.94169
1487.44	-13.0635
1487.71	2.10541
1487.97	-5.00839
1488.24	3.0825
1488.5	3.06726
1488.77	-1.00497
1489.03	9.09137
1489.3	-5.09543
1489.56	11.0858
1489.83	3.99727
1490.09	-3.08801
1490.36	-5.10687
1490.62	-2.06847
1490.89	14.1059
1491.15	4.98083
1491.42	-3.12941
1491.68	6.97403
1491.95	0.90683
1492.21	-6.16592
1492.48	4.96553
1492.74	2.94362
1493	-8.17947
1493.27	2.94104
1493.53	-6.15334
1493.8	2.93997
1494.06	-1.10423
1494.33	-1.09866
1494.59	8.01177
1494.86	4.994
1495.12	4.99245
1495.39	2.95315
1495.65	2.91833
1495.92	-3.1862
1496.18	-0.189194
1496.45	1.81001
1496.71	4.82406
1496.97	5.82011
1497.24	-0.250916
1497.5	-7.31418
1497.77	-4.28471
1498.03	6.81224
1498.3	0.756493
1498.56	-6.30434
1498.82	-0.243935
1499.09	3.79971
1499.35	5.82621
1499.62	-4.2567
1499.88	-2.22482
1500.15	-0.193031
1500.41	3.8518
1500.68	-6.24331
1500.94	-0.188454
1501.2	-8.26703
1501.47	-8.27836
1501.73	1.79215
1502	-3.26042
1502.26	7.83755
1502.52	-1.24847
1502.79	2.77654
1503.05	-6.32935
1503.32	10.7936
1503.58	-7.37443
1503.85	0.671021
1504.11	-9.4119
1504.37	1.69226
1504.64	13.7999
1504.9	-4.35076
1505.17	3.71114
1505.43	0.67276
1505.7	-2.37119
1505.96	-4.42216
1506.22	6.61668
1506.49	5.59982
1506.75	10.6326
1507.02	4.59345
1507.28	4.61216
1507.54	3.60918
1507.81	-1.42403
1508.07	5.62807
1508.34	-2.44276
1508.6	6.61777
1508.86	1.58146
1509.13	-1.43768
1509.39	7.632
1509.66	-6.47804
1509.92	12.6653
1510.18	-13.522
1510.45	-5.45347
1510.71	-0.440193
1510.98	-1.47386
1511.24	3.53127
1511.5	1.47908
1511.77	3.43827
1512.03	1.35567
1512.29	2.29179
1512.56	6.24563
1512.82	-0.844917
1513.08	2.13287
1513.35	7.12128
1513.61	-1.94221
1513.88	4.06801
1514.14	9.11658
1514.4	1.13131
1514.67	3.15038
1514.93	3.13264
1515.2	-2.92522
1515.46	8.08187
1515.72	4.0296
1515.99	1.97978
1516.25	-1.07136
1516.51	5.91888
1516.78	8.91078
1517.04	0.874847
1517.3	-0.139801
1517.57	-7.16515
1517.83	11.8835
1518.09	7.8791
1518.36	-4.13471
1518.62	-2.12596
1518.88	-2.12084
1519.15	8.91651
1519.41	-7.12624
1519.67	-4.1111
1519.94	0.907333
1520.2	-5.11953
1520.47	-0.11908
1520.73	3.88
1520.99	7.89594
1521.26	-6.14114
1521.52	4.90238
1521.78	0.888695
1522.05	3.88884
1522.31	0.862389
1522.57	1.84631
1522.84	6.84103
1523.1	8.82796
1523.36	-1.22777
1523.62	8.75412
1523.89	-0.324326
1524.15	1.64012
1524.41	-0.39579
1524.68	-7.43384
1524.94	10.5652
1525.2	3.56543
1525.47	1.563
1525.73	-6.44997
1525.99	-2.43144
1526.26	1.59354
1526.52	4.62837
1526.78	8.65891
1527.05	8.6638
1527.31	9.65683
1527.57	-10.4136
1527.84	-3.4123
1528.1	-5.43332
1528.36	1.56422
1528.63	-5.47099
1528.89	5.52904
1529.15	-0.499878
1529.41	-10.5295
1529.68	-8.5351
1529.94	6.47383
1530.2	0.436874
1530.47	-0.577141
1530.73	-3.57673
1530.99	5.45662
1531.25	-6.54572
1531.52	-0.522125
1531.78	3.4817
1532.04	6.47171
1532.31	0.455902
1532.57	-5.57993
1532.83	0.439133
1533.09	-2.54097
1533.36	4.51485
1533.62	-12.5014
1533.88	2.55344
1534.15	-0.453239
1534.41	1.54405
1534.67	0.525848
1534.94	1.51085
1535.2	2.49207
1535.46	0.466599
1535.72	7.45261
1535.99	-11.6641
1536.25	-2.69106
1536.51	9.29189
1536.77	3.22849
1537.04	-4.8363
1537.3	9.12306
1537.56	-2.91016
1537.82	5.05417
1538.09	3.04642
1538.35	-5.9895
1538.61	-0.0382233
1538.87	-0.059967
1539.14	5.91594
1539.4	6.94351
1539.66	-5.99316
1539.92	2.09605
1540.19	2.15279
1540.45	3.20088
1540.71	5.25406
1540.97	-8.75695
1541.24	-1.73285
1541.5	3.21745
1541.76	4.20409
1542.02	1.15204
1542.29	7.12164
1542.55	6.07646
1542.81	8.036
1543.07	7.99467
1543.34	-4.05696
1543.6	5.90961
1543.86	3.85526
1544.12	-3.19962
1544.39	-5.20413
1544.65	5.79492
1544.91	1.8116
1545.17	6.84422
1545.43	1.85951
1545.7	0.900055
1545.96	7.92831
1546.22	5.93263
1546.48	6.93895
1546.74	0.910629
1547.01	-3.10043
1547.27	2.91444
1547.53	4.92365
1547.79	-0.0829163
1548.06	-2.12524
1548.32	2.80495
1548.58	-6.21792
1548.84	-6.22213
1549.1	0.814987
1549.37	-0.31601
1549.63	6.53862
1549.89	6.49786
1550.15	4.56238
1550.42	5.69147
1550.68	-3.13977
1550.94	5.01686
1551.2	4.13139
1551.46	4.03081
1551.73	5.0368
1551.99	11.0221
1552.25	3.94197
1552.51	9.01016
1552.77	3.02864
1553.03	6.0132
1553.3	3.9549
1553.56	16.8898
1553.82	5.82031
1554.08	10.8129
1554.34	-0.25856
1554.61	-0.307037
1554.87	-2.36635
1555.13	6.5943
1555.39	9.57063
1555.65	-8.48126
1555.91	8.53534
1556.18	4.52507
1556.44	13.5307
1556.7	11.4938
1556.96	2.46864
1557.22	-2.54335
1557.48	0.457336
1557.75	-1.55609
1558.01	-11.5927
1558.27	-1.61079
1558.53	-2.66444
1558.79	2.29663
1559.06	-0.762146
1559.32	-0.813721
1559.58	3.14003
1559.84	5.0986
1560.1	8.06169
1560.36	-2.96561
1560.63	5.00447
1560.89	9.97815
1561.15	8.95795
1561.41	-10.0431
1561.67	3.94412
1561.93	-0.0423431
1562.19	-5.01879
1562.46	1.00648
1562.72	-11.0068
1562.98	3.97626
1563.24	-1.04753
1563.5	9.9467
1563.76	8.92035
1564.02	-8.09944
1564.29	-7.06938
1564.55	3.97241
1564.81	0.973694
1565.07	-0.0489502
1565.33	4.86586
1565.59	-8.36226
1565.85	-2.69276
1566.11	-0.876587
1566.38	5.6335
1566.64	6.78311
1566.9	8.69917
1567.16	3.6004
1567.42	0.696747
1567.68	2.80026
1567.94	13.7599
1568.2	2.65038
1568.47	11.6508
1568.73	-4.34106
1568.99	-4.34554
1569.25	-4.3709
1569.51	2.56607
1569.77	-0.473816
1570.03	2.51164
1570.29	-0.489395
1570.55	5.49644
1570.82	-1.51108
1571.08	6.46796
1571.34	-2.5459
1571.6	9.42014
1571.86	-2.60467
1572.12	4.35161
1572.38	0.338028
1572.64	10.2956
1572.9	2.26593
1573.17	1.23441
1573.43	1.20209
1573.69	15.1406
1573.95	5.12627
1574.21	2.12134
1574.47	7.12236
1574.73	5.14319
1574.99	5.16168
1575.25	-0.811493
1575.51	0.204788
1575.78	3.21266
1576.04	0.20694
1576.3	-9.80951
1576.56	3.16508
1576.82	-3.85831
1577.08	5.07784
1577.34	0.0192413
1577.6	9.93953
1577.86	5.88573
1578.12	-7.13869
1578.38	-5.19511
1578.64	2.74356
1578.9	-0.269333
1579.17	2.70592
1579.43	2.69066
1579.69	-0.313095
1579.95	6.65907
1580.21	4.6705
1580.47	7.6577
1580.73	-0.331665
1580.99	-1.34846
1581.25	-2.37463
1581.51	8.5567
1581.77	-0.446899
1582.03	5.49208
1582.29	-3.51859
1582.55	-4.5386
1582.81	-4.56177
1583.07	6.37164
1583.33	7.34544
1583.59	-4.62583
1583.85	12.2891
1584.11	-2.67863
1584.38	5.27408
1584.64	-6.68077
1584.9	0.28566
1585.16	3.26489
1585.42	8.22972
1585.68	-4.74126
1585.94	1.2173
1586.2	1.19014
1586.46	0.149246
1586.72	3.08888
1586.98	0.0645447
1587.24	15.9551
1587.5	12.9398
1587.76	4.95316
1588.02	1.94716
1588.28	6.9082
1588.54	4.91473
1588.8	3.92052
1589.06	7.90677
1589.32	8.90462
1589.58	10.8989
1589.84	5.91948
1590.1	-2.05537
1590.36	0.916565
1590.62	-8.04882
1590.88	0.913345
1591.14	12.862
1591.4	-0.103271
1591.66	1.87294
1591.92	-6.11713
1592.18	3.81245
1592.44	-0.214218
1592.7	-0.270248
1592.96	-0.315475
1593.22	3.62897
1593.48	1.57625
1593.74	-3.46127
1594	-3.52879
1594.26	2.384
1594.52	-3.60817
1594.78	0.350159
1595.04	-4.61569
1595.3	2.35008
1595.56	7.32179
1595.82	3.33244
1596.08	-0.716293
1596.34	12.1781
1596.6	4.21745
1596.86	-5.72832
1597.12	3.20111
1597.38	0.215851
1597.64	6.17323
1597.9	2.19641
1598.16	2.17844
1598.42	4.13783
1598.68	-4.83987
1598.94	3.05475
1599.2	5.98541
1599.46	2.96756
1599.72	-3.02396
1599.98	7.85358
1600.24	1.86316
1600.5	3.81033
1600.76	1.78619
1601.02	0.747345
1601.28	4.65613
1601.54	6.57794
1601.8	6.51857
1602.06	5.47647
1602.32	-7.43671
1602.58	2.42273
1602.84	0.400009
1603.1	4.31078
1603.36	7.23341
1603.62	2.24828
1603.88	3.20551
1604.14	3.17961
1604.4	12.0603
1604.66	-2.78293
1604.92	4.12758
1605.17	12.0247
1605.43	0.147766
1605.69	-3.81723
1605.95	1.12321
1606.21	-5.79905
1606.47	-8.76453
1606.73	3.10826
1606.99	6.076
1607.25	-0.870377
1607.51	2.09737
1607.77	7.86234
1608.03	-5.52481
1608.29	3.82152
1608.55	1.2397
1608.81	4.85191
1609.07	0.572845
1609.32	0.705734
1609.58	6.59654
1609.84	-4.01346
1610.1	-2.46904
1610.36	-8.79395
1610.62	1.75348
1610.88	4.95486
1611.14	7.07629
1611.4	1.40285
1611.66	3.06992
1611.92	4.50368
1612.18	2.75922
1612.44	-4.65846
1612.69	4.27411
1612.95	-0.230637
1613.21	-3.08003
1613.47	4.10025
1613.73	-2.60452
1613.99	2.15512
1614.25	2.69701
1614.51	0.879105
1614.77	-5.88951
1615.03	-3.17516
1615.29	-9.16714
1615.54	0.916641
1615.8	5.09117
1616.06	-1.78006
1616.32	-8.00346
1616.58	0.674332
1616.84	3.78883
1617.1	1.37206
1617.36	8.74776
1617.62	0.140564
1617.88	5.73302
1618.13	-2.09503
1618.39	-1.99115
1618.65	3.99619
1618.91	-2.25952
1619.17	0.142166
1619.43	1.13222
1619.69	-2.35803
1619.95	-0.64119
1620.2	5.02718
1620.46	0.719009
1620.72	1.30298
1620.98	-0.280853
1621.24	0.66185
1621.5	3.1142
1621.76	1.11772
1622.02	2.82245
1622.27	2.80986
1622.53	2.97362
1622.79	3.48209
1623.05	2.01071
1623.31	-1.56012
1623.57	-0.79631
1623.83	4.10651
1624.09	0.903778
1624.34	6.18362
1624.6	1.38797
1624.86	0.11615
1625.12	2.48524
1625.38	3.85651
1625.64	7.71298
1625.9	2.36656
1626.15	-1.37495
1626.41	1.43675
1626.67	2.49405
1626.93	2.06496
1627.19	-1.40115
1627.45	-2.70685
1627.7	3.61916
1627.96	5.87492
1628.22	3.64531
1628.48	2.53745
1628.74	-1.5256
1629	-3.49297
1629.26	-1.19278
1629.51	0.999619
1629.77	1.16805
1630.03	3.42448
1630.29	4.74059
1630.55	-5.50232
1630.81	-5.65241
1631.06	3.4989
1631.32	9.24326
1631.53	2.34377
1631.79	12.2027
1632.05	-0.592911
1632.31	-4.52538
1632.57	-4.54518
1632.84	-3.53687
1633.1	10.3236
1633.36	9.27274
1633.62	3.27371
1633.88	-1.68124
1634.14	13.1058
1634.4	0.303253
1634.66	6.21111
1634.93	8.17319
1635.19	3.22966
1635.45	0.254379
1635.71	-3.70908
1635.97	-6.68933
1636.23	-3.75903
1636.49	5.07968
1636.75	6.03468
1637.02	-2.86258
1637.28	-2.89655
1637.54	-1.94852
1637.8	3.93407
1638.06	-5.92941
1638.32	2.90666
1638.58	-4.99553
1638.84	0.887924
1639.1	-6.01373
1639.37	0.864304
1639.63	3.80325
1639.89	9.69566
1640.15	-5.08432
1640.41	5.72566
1640.67	5.71725
1640.93	7.7002
1641.19	-3.12448
1641.46	4.74568
1641.72	8.66206
1641.98	-1.21143
1642.24	-7.1402
1642.5	8.59138
1642.76	0.697571
1643.02	-5.22693
1643.28	2.63068
1643.54	-4.27513
1643.8	2.59898
1644.06	0.606979
1644.33	5.50018
1644.59	-2.40555
1644.85	-2.4353
1645.11	3.45068
1645.37	2.46518
1645.63	6.40712
1645.89	0.501022
1646.15	1.47473
1646.41	3.41701
1646.67	-0.547302
1646.93	-2.54115
1647.19	-0.594543
1647.46	4.29758
1647.72	-3.59784
1647.98	-6.57213
1648.24	8.16408
1648.5	11.1079
1648.76	-2.64952
1649.02	1.29919
1649.28	7.26118
1649.54	4.32359
1649.8	2.32762
1650.06	3.28459
1650.32	2.28748
1650.58	5.26994
1650.85	1.35225
1651.11	1.36562
1651.37	3.35037
1651.63	8.28336
1651.89	1.38141
1652.15	1.37033
1652.41	2.34436
1652.67	0.367142
1652.93	4.28358
1653.19	-4.61253
1653.45	-1.6756
1653.71	-7.59834
1653.97	3.23415
1654.23	4.22177
1654.49	-2.67903
1654.75	5.19876
1655.01	2.24011
1655.27	-0.711121
1655.53	-0.69577
1655.8	4.2627
1656.06	-2.60509
1656.32	2.34937
1656.57	10.2554
1656.84	4.33437
1657.1	-4.55475
1657.36	-1.60841
1657.62	3.30382
1657.88	5.25107
1658.14	4.24374
1658.4	6.19563
1658.66	-2.71098
1658.92	0.218796
1659.18	0.187698
1659.44	1.14265
1659.7	7.02814
1659.96	7.98178
1660.22	8.92532
1660.48	-3.88983
1660.74	4.00356
1661	-1.90273
1661.26	0.0825043
1661.52	-4.83582
1661.78	-0.873245
1662.04	-10.741
1662.3	-0.873627
1662.56	3.92332
1662.82	-2.74066
1663.08	13.2085
1663.34	-0.72113
1663.6	7.15878
1663.86	-5.73228
1664.12	1.87917
1664.38	8.9216
1664.64	-4.87547
1664.9	1.0493
1665.16	6.0457
1665.42	6.06343
1665.68	0.965698
1665.94	3.78633
1666.2	-1.79942
1666.46	8.10709
1666.72	-6.74985
1666.98	-2.00261
1667.24	2.49579
1667.5	2.89008
1667.76	2.84952
1668.02	4.78973
1668.28	7.72487
1668.54	0.784561
1668.8	2.75043
1669.06	-1.14606
1669.32	3.85719
1669.58	1.88643
1669.84	-2.07198
1670.1	1.87364
1670.36	-4.07707
1670.62	9.74022
1670.88	7.82851
1671.14	-1.03108
1671.4	-8.96283
1671.66	7.81937
1671.92	4.83777
1672.18	5.82198
1672.44	-7.02623
1672.69	-1.10117
1672.95	0.864944
1673.21	6.78513
1673.47	-1.12943
1673.73	-6.07698
1673.99	-6.07835
1674.25	-0.142334
1674.51	8.76608
1674.77	3.82857
1675.03	-6.05528
1675.29	-10.9877
1675.55	0.895493
1675.81	4.85588
1676.07	-3.06924
1676.33	8.79404
1676.59	-6.056
1676.85	-15.9565
1677.11	-0.127228
1677.37	1.84019
1677.63	-10.0537
1677.89	4.76886
1678.14	-0.208221
1678.4	6.6805
1678.66	-4.23978
1678.92	-0.317993
1679.18	2.6196
1679.44	-9.27053
1679.7	0.594299
1679.96	-0.417923
1680.22	-6.37161
1680.48	10.4092
1680.74	-4.43805
1681	3.44318
1681.26	-4.48276
1681.52	6.36832
1681.78	-0.559448
1682.03	-4.52213
1682.29	0.407471
1682.55	12.254
1682.81	-1.58382
1683.07	0.376694
1683.33	-10.5036
1683.59	13.194
1683.85	2.31749
1684.11	13.1703
1684.37	5.24887
1684.63	-3.67105
1684.89	2.23349
1685.14	0.24173
1685.4	-3.72232
1685.66	-6.69685
1685.92	-1.76985
1686.18	0.196472
1686.44	10.0649
1686.7	0.191559
1686.96	-2.75366
1687.22	-0.773788
1687.48	-2.75615
1687.73	11.054
1687.99	-4.77617
1688.25	-2.82544
1688.51	9.99031
1688.77	-2.87137
1689.03	-4.87477
1689.29	-3.92499
1689.55	4.92528
1689.81	1.93098
1690.06	-0.0783997
1690.32	-5.04968
1690.58	6.76759
1690.84	1.85872
1691.1	5.81358
1691.36	-7.99686
1691.62	7.78844
1691.88	-0.100494
1692.13	-0.0978088
1692.39	11.7366
1692.65	-5.05823
1692.91	2.80743
1693.17	5.73135
1693.43	2.73102
1693.69	5.64264
1693.95	2.63376
1694.2	-5.28798
1694.46	-5.32278
1694.72	0.551834
1694.98	-1.44725
1695.24	8.39178
1695.5	-12.2957
1695.76	-5.40211
1696.01	0.507492
1696.27	0.507751
1696.53	3.47362
1696.79	-2.43553
1697.05	-0.474762
1697.31	4.43045
1697.57	8.33617
1697.82	1.39548
1698.08	-3.57343
1698.34	7.21909
1698.6	8.16954
1698.86	4.20007
1699.12	5.15596
1699.38	0.216797
1699.63	7.09183
1699.89	0.202667
1700.15	5.11497
1700.41	3.1402
1700.67	3.10561
1700.92	-1.82861
1701.18	4.05891
1701.44	0.107071
1701.7	9.92218
1701.96	4.97211
1702.22	0.0189209
1702.47	3.91797
1702.73	6.82991
1702.99	5.81204
1703.25	6.77745
1703.51	5.78194
1703.77	2.81602
1704.02	-1.13605
1704.28	8.67107
1704.54	11.6228
1704.8	1.80714
1705.06	-0.162827
1705.32	3.75221
1705.57	11.5952
1705.83	3.72559
1706.09	6.66443
1706.35	-0.243713
1706.61	13.4693
1706.86	-1.30434
1707.12	1.59831
1707.38	2.53687
1707.64	4.46063
1707.9	-12.263
1708.16	1.41867
1708.41	2.34662
1708.67	10.1346
1708.93	-0.704407
1709.19	5.1192
1709.44	-3.73439
1709.7	0.153076
1709.96	6.00845
1710.22	5.01833
1710.48	5.01219
1710.73	0.112717
1710.99	5.01051
1711.25	3.06439
1711.51	-2.80725
1711.77	-4.76309
1712.02	7.97113
1712.28	0.128601
1712.54	2.06355
1712.8	-0.921341
1713.06	5.86528
1713.31	4.81709
1713.57	4.75218
1713.83	9.58014
1714.09	-1.23245
1714.34	9.48071
1714.6	2.61557
1714.86	4.54733
1715.12	0.62352
1715.38	-2.31783
1715.63	-3.28053
1715.89	4.55655
1716.15	1.61546
1716.41	-0.35881
1716.66	7.4278
1716.92	9.34164
1717.18	-0.472076
1717.44	12.1598
1717.69	11.1129
1717.95	-1.64571
1718.21	5.10954
1718.47	0.175201
1718.72	6.93933
1718.98	13.7153
1719.24	4.9248
1719.5	17.5706
1719.75	11.7183
1720.01	8.78023
1720.27	3.91379
1720.53	6.83191
1720.78	-2.92702
1721.04	15.535
1721.3	3.80717
1721.56	7.66039
1721.81	11.5136
1722.07	15.3613
1722.33	7.53648
1722.59	6.51846
1722.84	3.55817
1723.1	-2.31326
1723.36	13.1906
1723.62	6.35783
1723.87	12.1589
1724.13	12.1484
1724.39	8.24304
1724.64	4.34312
1724.9	5.28223
1725.16	2.32448
1725.42	13.9028
1725.67	8.99146
1725.93	12.8051
1726.19	16.6364
1726.45	14.671
1726.7	3.04375
1726.96	15.6221
1727.22	14.6216
1727.47	7.77922
1727.73	0.0183563
1727.99	6.82347
1728.24	1.96202
1728.5	1.92982
1728.76	5.74129
1729.02	7.46962
1729.27	3.37755
1729.53	15.8316
1729.79	10.1181
1730.05	3.42482
1730.3	8.30185
1730.56	1.44501
1730.82	7.19058
1731.07	14.8902
1731.33	-3.30873
1731.59	21.819
1731.84	17.9473
1732.1	11.1697
1732.36	8.25294
1732.61	8.22981
1732.87	12.0698
1733.13	1.41193
1733.39	0.4077
1733.64	15.8058
1733.9	8.01506
1734.16	7.94548
1734.41	8.85703
1734.67	7.83829
1734.93	9.71042
1735.18	11.5807
1735.44	9.59799
1735.7	13.3996
1735.95	7.58267
1736.21	18.1401
1736.47	10.4166
1736.72	6.54285
1736.98	-1.18358
1737.24	19.9563
1737.49	7.41821
1737.75	0.656403
1738.01	14.0946
1738.26	6.36626
1738.52	9.21109
1738.78	8.20992
1739.03	12.0143
1739.29	7.16573
1739.55	8.0753
1739.8	16.6528
1740.06	15.6147
1740.32	11.7035
1740.57	7.80238
1740.83	3.91342
1741.09	7.70305
1741.34	6.70331
1741.6	4.74626
1741.86	14.2856
1742.11	1.80273
1742.37	11.3537
1742.63	6.54861
1742.88	11.3147
1743.14	9.37537
1743.4	4.57086
1743.65	15.0866
1743.91	14.105
1744.16	10.2373
1744.42	12.1158
1744.68	4.43176
1744.93	13.9772
1745.19	11.0981
1745.45	11.0912
1745.7	10.1254
1745.96	8.19531
1746.22	4.34233
1746.47	9.08517
1746.73	10.9497
1746.98	5.16212
1747.24	7.03032
1747.5	4.1144
1747.75	11.7116
1748.01	17.3953
1748.27	4.95859
1748.52	21.1732
1748.78	16.3929
1749.03	13.5258
1749.29	15.4359
1749.55	2.07703
1749.8	13.5495
1750.06	4.01834
1750.32	4.99631
1750.57	10.7536
1750.83	10.7758
1751.08	8.86646
1751.34	10.7857
1751.6	9.82425
1751.85	14.5752
1752.11	5.92137
1752.36	13.5107
1752.62	10.6008
1752.88	10.5595
1753.13	10.5163
1753.39	3.79196
1753.64	19.0242
1753.9	8.49213
1754.15	17.9987
1754.41	17.9543
1754.67	5.51378
1754.92	19.7832
1755.18	10.2183
1755.43	9.23836
1755.69	11.1159
1755.95	12.0339
1756.2	13.8975
1756.46	13.8503
1756.71	6.18208
1756.97	5.17358
1757.23	8.92426
1757.48	11.7257
1757.74	16.4533
1757.99	13.5712
1758.25	8.81487
1758.5	16.4599
1758.76	16.4643
1759.02	11.7001
1759.27	8.83725
1759.53	19.2966
1759.78	12.6331
1760.04	17.3787
1760.3	14.5021
1760.55	16.3819
1760.81	14.4543
1761.06	17.2802
1761.32	14.3916
1761.57	13.3999
1761.83	14.3134
1762.08	19.0375
1762.34	9.5096
1762.6	6.64166
1762.85	14.2616
1763.11	2.85863
1763.36	17.1137
1763.62	20.8999
1763.87	9.48465
1764.13	13.2886
1764.38	18.0492
1764.64	12.3638
1764.89	15.2645
1765.15	18.1335
1765.4	16.2401
1765.66	15.2923
1765.92	17.1963
1766.17	13.3832
1766.43	16.2292
1766.68	6.69325
1766.94	12.383
1767.19	15.2175
1767.45	17.1082
1767.7	15.1812
1767.96	8.48743
1768.21	16.0668
1768.47	2.71814
1768.73	16.9654
1768.98	14.0894
1769.24	13.065
1769.49	19.6229
1769.75	16.6808
1770	21.3643
1770.26	16.6102
1770.51	10.9371
1770.77	19.5141
1771.02	11.9056
1771.28	13.8058
1771.53	19.5382
1771.79	15.7813
1772.04	26.2499
1772.3	11.9839
1772.55	10.0956
1772.81	14.8714
1773.06	18.69
1773.32	25.3593
1773.57	20.6089
1773.83	18.7109
1774.08	9.19588
1774.34	13.9564
1774.59	7.28972
1774.85	11.0938
1775.1	22.5303
1775.36	17.7704
1775.61	13.9771
1775.87	6.412
1776.12	16.9234
1776.38	10.2591
1776.63	11.2066
1776.89	17.8613
1777.14	14.9706
1777.4	12.0734
1777.65	12.9986
1777.91	15.818
1778.16	18.6366
1778.42	20.5006
1778.67	18.556
1778.93	24.2228
1779.18	16.5538
1779.44	10.7896
1779.69	11.7047
1779.95	10.7392
1780.2	7.91545
1780.46	9.81766
1780.71	3.15428
1780.97	18.3849
1781.22	12.6772
1781.47	22.1886
1781.73	11.7112
1781.98	6.00008
1782.24	8.86502
1782.49	7.92456
1782.75	12.7106
1783	5.09927
1783.26	20.3512
1783.51	18.4507
1783.77	0.349045
1784.02	5.1217
1784.28	16.572
1784.53	11.8199
1784.79	8.03087
1785.04	13.7659
1785.29	12.8124
1785.55	8.02951
1785.8	8.96355
1786.06	9.88979
1786.31	17.4925
1786.57	11.7593
1786.82	17.4838
1787.08	9.86369
1787.33	8.92885
1787.58	11.8213
1787.84	12.821
1788.09	10.9889
1788.35	10.1169
1788.6	6.37228
1788.86	11.208
1789.11	13.1362
1789.37	13.1597
1789.62	15.1206
1789.87	8.43927
1790.13	14.1962
1790.38	20.9131
1790.64	6.54167
1790.89	6.53033
1791.15	4.5934
1791.4	6.4649
1791.65	9.23611
1791.91	8.25253
1792.16	8.22507
1792.42	15.8754
1792.67	14.9113
1792.93	1.49753
1793.18	12.0397
1793.43	11.0816
1793.69	8.19829
1793.94	-1.39378
1794.2	0.527634
1794.45	4.35283
1794.7	5.29512
1794.96	14.8403
1795.21	18.7043
1795.47	10.1825
1795.72	9.28705
1795.97	2.5937
1796.23	12.2034
1796.48	16.0587
1796.74	6.47084
1796.99	14.1712
1797.25	18.993
1797.5	10.3606
1797.75	11.3325
1798.01	7.49394
1798.26	10.3811
1798.51	11.343
1798.77	8.4538
1799.02	4.59503
1799.28	8.41924
1799.53	12.235
1799.78	9.31346
1800.04	13.1146
1800.29	12.1119
1800.55	0.546707
1800.8	5.31937
1801.05	8.17403
1801.31	11.0326
1801.56	2.36911
1801.81	6.19695
1802.07	6.18803
1802.32	9.06563
1802.58	2.34094
1802.83	9.07138
1803.08	9.0822
1803.34	6.21399
1803.59	-0.498611
1803.84	14.8971
1804.1	4.31845
1804.35	15.8529
1804.61	7.20172
1804.86	6.25296
1805.11	5.30347
1805.37	11.0963
1805.62	15.9333
1805.87	13.0682
1806.13	5.3813
1806.38	3.46588
1806.64	13.1092
1806.89	13.1155
1807.14	9.25929
1807.4	15.0324
1807.65	1.526
1807.9	7.29443
1808.16	10.1728
1808.41	11.1246
1808.66	21.716
1808.92	13.0309
1809.17	12.0576
1809.42	8.19269
1809.68	17.823
1809.93	11.0663
1810.18	8.16521
1810.44	7.19099
1810.69	6.21318
1810.94	13.9037
1811.2	11.9526
1811.45	0.366135
1811.7	10.9523
1811.96	6.11462
1812.21	16.7056
1812.46	9.94913
1812.72	9.95004
1812.97	7.06276
1813.22	8.03812
1813.48	-2.56741
1813.73	19.6145
1813.98	7.07811
1814.24	5.16525
1814.49	4.22337
1814.74	4.24841
1815	12.0085
1815.25	4.29297
1815.5	2.36731
1815.76	12.9942
1816.01	7.18765
1816.26	8.14522
1816.52	12.0035
1816.77	11.0313
1817.02	-1.54106
1817.27	4.23476
1817.53	1.29805
1817.78	3.14771
1818.03	5.01469
1818.29	16.5954
1818.54	7.91351
1818.79	7.93782
1819.05	1.18018
1819.3	14.6858
1819.55	7.91577
1819.8	5.01755
1820.06	6.95192
1820.31	5.98224
1820.56	8.88388
1820.82	8.8878
1821.07	16.625
1821.32	10.8199
1821.58	14.6937
1821.83	5.0266
1822.08	20.5143
1822.33	15.6775
1822.59	2.12473
1822.84	21.4773
1823.09	2.10909
1823.34	1.13142
1823.6	6.92023
1823.85	9.79466
1824.1	3.95515
1824.36	0.0628357
1824.61	11.6726
1824.86	12.6375
1825.11	10.6976
1825.37	7.79099
1825.62	0.0432434
1825.87	14.5628
1826.12	-1.91464
1826.38	13.5625
1826.63	11.6114
1826.88	-3.89746
1827.14	5.77388
1827.39	10.6088
1827.64	9.63736
1827.89	4.7928
1828.15	12.5412
1828.4	10.587
1828.65	0.874588
1828.9	1.8119
1829.16	15.335
1829.41	6.58583
1829.66	7.53108
1829.91	4.60216
1830.17	6.51289
1830.42	12.2879
1830.67	11.2845
1830.92	10.2824
1831.18	12.2014
1831.43	11.2327
1831.68	10.2672
1831.93	16.0814
1832.19	17.0521
1832.44	10.2733
1832.69	-0.381165
1832.94	15.1351
1833.2	11.2625
1833.45	8.33983
1833.7	6.38658
1833.95	10.2598
1834.2	8.31017
1834.46	-2.36252
1834.71	16.9686
1834.96	9.11676
1835.21	4.18269
1835.47	14.7432
1835.72	13.7109
1835.97	8.81375
1836.22	5.89146
1836.48	6.80594
1836.73	1.56416
1836.98	10.2656
1837.23	-0.622818
1837.48	8.98262
1837.74	1.1097
1837.99	8.74446
1838.24	0.838242
1838.49	6.52963
1838.74	6.49231
1839	7.69038
1839.25	5.8436
1839.5	2.97331
1839.75	-1.86972
1840	9.75998
1840.26	-3.79207
1840.51	9.62054
1840.76	1.75357
1841.01	-2.21977
1841.27	-2.30949
1841.52	6.302
1841.77	12.9775
1842.02	11.9303
1842.27	7.02957
1842.53	-2.6879
1842.78	0.139954
1843.03	17.5089
1843.28	9.75761
1843.53	7.82651
1843.78	5.87563
1844.04	1.03317
1844.29	4.85681
1844.54	11.5882
1844.79	9.65862
1845.04	9.64241
1845.3	8.63321
1845.55	13.4424
1845.8	17.2825
1846.05	12.5043
1846.3	7.72591
1846.55	9.69702
1846.81	4.95233
1847.06	16.4419
1847.31	3.65504
1847.56	12.0553
1847.81	8.13405
1848.07	11.0052
1848.32	8.17384
1848.57	7.26065
1848.82	9.09016
1849.07	10.9553
1849.32	1.31194
1849.57	2.22635
1849.83	2.16473
1850.08	2.09944
1850.33	9.73105
1850.58	1.96242
1850.83	7.66655
1851.09	1.84172
1851.34	1.79053
1851.59	4.6245
1851.84	5.54323
1852.09	5.50783
1852.34	1.63976
1852.59	-7.98422
1852.84	2.55849
1853.1	-4.18396
1853.35	1.5529
1853.6	6.32419
1853.85	8.20741
1854.1	7.19771
1854.35	1.37781
1854.6	3.2291
1854.86	9.87994
1855.11	0.24707
1855.36	-2.67145
1855.61	13.5606
1855.86	8.69795
1856.11	0.0274658
1856.36	-9.58469
1856.61	6.67053
1856.87	4.73424
1857.12	3.75493
1857.37	14.2631
1857.62	3.69398
1857.87	10.3588
1858.12	5.53188
1858.37	-0.255966
1858.63	8.30833
1858.88	4.42543
1859.13	-0.413101
1859.38	-8.12054
1859.63	2.34224
1859.88	5.16368
1860.13	3.22717
1860.38	4.1629
1860.63	-3.49751
1860.89	1.28922
1861.14	8.94513
1861.39	-6.3588
1861.64	4.17053
1861.89	-2.52545
1862.14	0.332047
1862.39	-5.43819
1862.64	6.95827
1862.9	11.6877
1863.15	9.71698
1863.4	8.70299
1863.65	3.86717
1863.9	2.85844
1864.15	0.897507
1864.4	1.8051
1864.65	8.44437
1864.9	-0.19928
1865.15	5.47833
1865.4	2.55515
1865.66	4.39836
1865.91	-1.39636
1866.16	10.9247
1866.41	3.2126
1866.66	3.12805
1866.91	3.04482
1867.16	-5.60623
1867.41	5.73473
1867.66	8.51036
1867.91	9.39485
1868.16	-5.86652
1868.41	11.2089
1868.67	11.1765
1868.92	6.40425
1869.17	9.24283
1869.42	-0.287308
1869.67	-2.21782
1869.92	3.45505
1870.17	1.52373
1870.42	3.39557
1870.67	3.36627
1870.92	-0.463074
1871.17	2.3627
1871.42	8.04099
1871.67	5.15726
1871.92	-3.43359
1872.17	5.07089
1872.42	7.88086
1872.68	2.14458
1872.93	20.1395
1873.18	-2.70369
1873.43	0.103088
1873.68	9.5677
1873.93	0.0409241
1874.18	5.69322
1874.43	12.2853
1874.68	2.7411
1874.93	13.1156
1875.18	11.1567
1875.43	-0.284012
1875.68	-6.03294
1875.93	19.4745
1876.18	5.15851
1876.43	4.13458
1876.68	10.6902
1876.93	3.06259
1877.18	5.85692
1877.43	1.0325
1877.68	-2.85741
1877.93	-5.87297
1878.18	-4.8374
1878.44	6.07718
1878.69	4.8976
1878.93	2.91571
1879.19	1.92827
1879.44	13.4094
1879.69	8.72328
1879.94	6.75978
1880.19	-7.51163
1880.44	11.3953
1880.69	-6.62581
1880.94	0.0117645
1881.19	5.63733
1881.44	-2.91292
1881.69	2.68326
1881.94	-2.14165
1882.19	-1.29054
1882.44	10.8929
1882.69	2.28116
1882.94	-0.675293
1883.19	3.97797
1883.44	5.73178
1883.69	10.5083
1883.94	9.81036
1884.19	3.72784
1884.44	-0.0528107
1884.69	-0.931824
1884.94	-2.91649
1885.19	1.82887
1885.44	5.65608
1885.69	10.3727
1885.94	-0.00970459
1886.19	4.75969
1886.44	4.77258
1886.69	-6.56013
1886.94	0.0139313
1887.19	-1.01404
1887.44	11.2
1887.69	6.42297
1887.94	3.53297
1888.19	8.18744
1888.44	-3.19293
1888.69	4.2679
1888.94	3.25067
1889.19	6.00601
1889.44	6.87761
1889.69	-9.17426
1889.94	-3.55379
1890.19	2.0645
1890.44	2.05565
1890.69	-5.46625
1890.94	5.84561
1891.19	9.60112
1891.43	0.1539
1891.68	4.82669
1891.94	-1.7914
1892.18	1.94315
1892.43	9.4458
1892.68	9.41733
1892.93	2.78163
1893.18	13.0821
1893.43	1.7106
1893.68	4.42657
1893.93	11.8499
1894.18	2.40907
1894.43	4.29054
1894.68	5.15231
1894.93	6.04181
1895.18	6.94666
1895.43	5.98878
1895.68	-1.53897
1895.93	0.332489
1896.18	-4.37186
1896.43	-1.55646
1896.68	0.32457
1896.93	0.330399
1897.18	2.21365
1897.42	5.97247
1897.68	3.14218
1897.92	-0.636337
1898.17	5.92482
1898.42	6.83327
1898.67	3.97092
1898.92	-0.779907
1899.17	3.86458
1899.42	8.50255
1899.67	10.3293
1899.92	2.7729
1900.17	0.851807
1900.42	-3.88676
1900.67	3.60022
1900.92	1.70345
1901.16	3.57472
1901.41	6.39595
1901.66	4.52554
1901.91	5.47232
1902.16	6.42082
1902.41	0.791702
1902.66	16.7921
1902.91	-2.04222
1903.16	7.32854
1903.41	8.23016
1903.66	8.18866
1903.91	1.56996
1904.16	4.35812
1904.41	2.44759
1904.65	-3.22101
1904.9	-2.30881
1905.15	8.94176
1905.4	5.15231
1905.65	5.12726
1905.9	5.09573
1906.15	0.331207
1906.4	6.83348
1906.65	11.4858
1906.9	0.173813
1907.14	-2.68135
1907.39	5.7366
1907.64	5.71545
1907.89	1.00615
1908.14	3.8205
1908.39	4.76572
1908.64	3.81607
1908.89	5.68108
1909.14	-9.36002
1909.39	-5.60161
1909.63	0.0444031
1909.88	6.64079
1910.13	-4.62198
1910.38	18.9238
1910.63	2.95943
1910.88	5.80785
1911.13	1.11148
1911.38	9.58884
1911.62	2.04628
1911.87	6.73955
1912.12	3.88976
1912.37	8.56621
1912.62	0.0559692
1912.87	7.56474
1913.12	4.71614
1913.37	-2.84084
1913.61	0.90921
1913.86	3.73537
1914.11	1.87181
1914.36	8.49495
1914.61	3.79468
1914.86	10.4049
1915.11	-2.78859
1915.36	-2.78256
1915.6	5.70792
1915.85	8.52544
1916.1	10.3863
1916.35	0.915146
1916.6	4.65848
1916.85	-4.81966
1917.1	-5.81593
1917.34	9.22443
1917.59	-0.249878
1917.84	9.14006
1918.09	6.27968
1918.34	4.37573
1918.59	0.603058
1918.83	9.10153
1919.08	0.631256
1919.33	7.25917
1919.58	5.399
1919.83	-3.05852
1920.08	1.69414
1920.33	6.42479
1920.57	2.62975
1920.82	-1.18956
1921.07	0.687729
1921.32	3.53902
1921.57	6.39305
1921.81	-2.11523
1922.06	7.33965
1922.31	-0.234863
1922.56	-0.257034
1922.81	14.8401
1923.06	6.28261
1923.31	8.12877
1923.55	-3.25281
1923.8	9.00151
1924.05	6.12886
1924.3	10.8099
1924.55	-2.46928
1924.79	4.10381
1925.04	-6.3166
1925.29	8.78329
1925.54	0.277527
1925.79	5.01241
1926.04	6.92822
1926.28	4.11243
1926.53	6.0218
1926.78	7.93483
1927.03	5.12277
1927.28	-2.44073
1927.52	5.13422
1927.77	10.8157
1928.02	-3.39264
1928.27	-5.29228
1928.52	4.17459
1928.76	-0.573547
1929.01	3.214
1929.26	-3.42175
1929.51	5.10989
1929.76	-4.35811
1930	-0.541504
1930.25	3.26889
1930.5	-2.39966
1930.75	4.2578
1931	1.42914
1931.24	2.36816
1931.49	5.19904
1931.74	6.11467
1931.99	2.27542
1932.24	1.28401
1932.48	6.93501
1932.73	10.6871
1932.98	6.84544
1933.23	6.8166
1933.47	-1.76341
1933.72	-0.827347
1933.97	1.09174
1934.22	-2.65392
1934.46	-3.52953
1934.71	1.33284
1934.96	2.39207
1935.21	6.29323
1935.46	-8.88036
1935.7	-5.0188
1935.95	-2.13036
1936.2	-3.203
1936.45	6.29132
1936.69	4.35387
1936.94	-4.26332
1937.19	4.25935
1937.44	-3.41968
1937.68	-3.47145
1937.93	5.99701
1938.18	1.1875
1938.43	-2.67184
1938.68	4.91916
1938.92	4.95175
1939.17	0.188095
1939.42	7.80836
1939.67	0.193695
1939.91	-2.66582
1940.16	-4.56828
1940.41	0.180557
1940.66	-0.757141
1940.9	-1.69495
1941.15	2.19775
1941.4	5.09813
1941.64	0.305527
1941.89	7.89828
1942.14	-3.62534
1942.39	3.89157
1942.63	7.74132
1942.88	-1.66364
1943.13	-0.694748
1943.38	-6.43895
1943.62	-2.70023
1943.87	-2.78781
1944.12	-4.76729
1944.37	2.93924
1944.61	2.95158
1944.86	2.00807
1945.11	-2.75249
1945.35	-3.69194
1945.6	-4.63191
1945.85	-2.70538
1946.1	-0.781479
1946.34	-5.55458
1946.59	3.0531
1946.84	0.180573
1947.09	-13.2211
1947.33	6.84016
1947.58	5.84972
1947.83	-9.48701
1948.07	-1.86122
1948.32	-0.926773
1948.57	3.83247
1948.82	-4.80583
1949.06	5.69905
1949.31	4.75052
1949.56	3.80508
1949.8	3.81769
1950.05	2.87952
1950.3	-4.75851
1950.54	0.0713501
1950.79	2.99489
1951.04	3.0294
1951.29	1.15172
1951.53	2.15358
1951.78	6.03052
1952.03	-5.46082
1952.27	2.22894
1952.52	-0.648605
1952.77	-6.40692
1953.01	0.290161
1953.26	-0.662689
1953.51	9.9247
1953.76	2.17538
1954	-8.46494
1954.25	-3.77898
1954.49	1.87289
1954.74	-0.145264
1954.99	-10.7736
1955.24	5.47211
1955.48	3.53082
1955.73	4.48776
1955.98	-2.19804
1956.22	-2.15315
1956.47	10.4055
1956.72	-8.7625
1956.96	2.78467
1957.21	-4.88965
1957.46	4.72966
1957.7	3.78258
1957.95	0.910187
1958.2	1.87372
1958.44	6.67545
1958.69	-13.5166
1958.94	-2.95558
1959.18	-0.10376
1959.43	-1.11337
1959.68	3.65649
1959.92	2.67056
1960.17	-5.05792
1960.42	-3.17937
1960.66	9.26381
1960.91	1.53563
1961.16	-10.9932
1961.4	-2.3985
1961.65	-3.40025
1961.9	8.08121
1962.14	-0.569519
1962.39	-1.5396
1962.63	9.96469
1962.88	8.03326
1963.13	2.26205
1963.37	-2.55022
1963.62	-2.56367
1963.87	3.18285
1964.11	6.052
1964.36	-7.38947
1964.61	-2.59088
1964.85	-0.691727
1965.1	-8.40372
1965.35	-1.69803
1965.59	6.91942
1965.84	4.02361
1966.08	4.02083
1966.33	6.91405
1966.58	3.08859
1966.82	-1.69975
1967.07	4.07201
1967.32	1.19
1967.56	9.81776
1967.81	3.07237
1968.05	3.06795
1968.3	-4.63489
1968.55	-1.7623
1968.79	4.94604
1969.04	0.106995
1969.29	3.90637
1969.53	1.9279
1969.78	1.86081
1970.02	5.63475
1970.27	-0.184433
1970.52	7.4446
1970.76	7.40387
1971.01	-0.318253
1971.25	-4.19676
1971.5	7.27977
1971.75	8.20561
1971.99	1.46127
1972.24	14.8837
1972.48	8.16713
1972.73	10.0767
1972.98	1.42308
1973.22	10.9848
1973.47	3.26701
1973.71	6.09149
1973.96	7.96216
1974.21	7.92322
1974.45	-5.52733
1974.7	9.78529
1974.94	19.3537
1975.19	7.84033
1975.44	9.75359
1975.68	17.4274
1975.93	9.76515
1976.17	9.76981
1976.42	9.76959
1976.66	3.04871
1976.91	-1.75883
1977.16	3.98035
1977.4	13.5509
1977.65	6.80865
1977.89	15.4051
1978.14	8.6496
1978.39	7.64743
1978.63	7.60864
1978.88	-4.88657
1979.12	10.4228
1979.37	1.77943
1979.61	7.51871
1979.86	10.3784
1980.1	3.65858
1980.35	17.0646
1980.6	7.44675
1980.84	12.1932
1981.09	9.2742
1981.33	16.9084
1981.58	1.5405
1981.82	13.959
1982.07	12.9735
1982.31	11.9934
1982.56	7.18199
1982.81	8.09796
1983.05	9.01204
1983.3	18.5296
1983.54	12.7214
1983.79	8.84207
1984.03	18.3762
1984.28	4.95596
1984.52	13.5327
1984.77	2.97925
1985.02	7.73134
1985.26	12.469
1985.51	11.4539
1985.75	16.1963
1986	4.71191
1986.24	-1.02911
1986.49	2.80009
1986.73	16.1966
1986.98	14.2828
1987.22	11.3924
1987.47	19.0392
1987.71	4.65256
1987.96	28.4863
1988.21	13.1219
1988.45	21.6401
1988.7	11.9999
1988.94	11.8539
1989.19	4.26381
1989.43	9.76625
1989.68	19.8563
1989.92	15.5322
1990.17	17.6203
1990.41	19.6411
1990.66	16.8463
1990.9	13.0161
1991.15	17.243
1991.39	12.934
1991.64	16.2941
1991.88	11.4756
1992.13	21.5349
1992.37	6.90019
1992.62	24.2842
1992.86	24.2189
1993.11	23.3507
1993.35	17.7103
1993.6	19.9491
1993.84	17.9629
1994.09	17.3999
1994.33	11.058
1994.58	2.70555
1994.82	14.7246
1995.07	15.1848
1995.31	17.9029
1995.56	16.3915
1995.8	18.4631
1996.05	14.0131
1996.29	24.9892
1996.54	19.2552
1996.78	19.3453
1997.03	18.1783
1997.27	16.2642
1997.52	24.317
1997.76	19.3953
1998.01	20.3046
1998.25	13.7521
1998.5	23.6223
1998.74	14.6271
1998.99	18.9404
1999.23	20.1476
1999.48	19.3411
1999.72	25.0475
1999.97	22.0544
2000.21	20.5831
2000.46	24.5108
2000.7	16.0694
2000.95	18.1609
2001.19	22.9743
2001.43	21.6192
2001.68	17.5641
2001.92	16.959
2002.17	18.1792
2002.41	18.6271
2002.66	18.7306
2002.9	20.9132
2003.15	22.1917
2003.39	22.1684
2003.64	25.864
2003.88	23.8459
2004.13	25.2357
2004.37	25.9317
2004.61	29.812
2004.86	26.5332
2005.1	22.4239
2005.35	21.5411
2005.59	17.9586
2005.84	20.1205
2006.08	23.16
2006.33	22.2266
2006.57	19.1055
2006.81	20.8719
2007.06	24.8472
2007.3	21.4864
2007.55	21.7042
2007.79	24.1864
2008.04	20.3631
2008.28	27.9809
2008.53	21.9682
2008.77	18.9629
2009.01	28.9099
2009.26	25.6255
2009.5	21.0996
2009.75	21.5986
2009.99	23.6058
2010.24	25.3992
2010.48	23.7426
2010.73	23.3241
2010.97	25.2907
2011.21	11.9165
2011.46	26.4859
2011.7	22.0362
2011.95	31.2762
2012.19	23.3528
2012.43	22.4599
2012.68	21.4919
2012.92	13.9349
2013.17	26.1258
2013.42	25.1099
2013.67	19.365
2013.91	13.6615
2014.16	17.3477
2014.41	19.1391
2014.66	18.0965
2014.9	25.5128
2015.15	22.6626
2015.4	25.475
2015.64	9.53197
2015.89	24.57
2016.14	20.8251
2016.39	17.9787
2016.63	22.7072
2016.88	22.828
2017.13	14.3841
2017.37	29.4005
2017.62	15.266
2017.87	18.0338
2018.11	18.9088
2018.36	17.892
2018.61	13.1172
2018.86	16.797
2019.1	18.5987
2019.35	12.8945
2019.6	13.7596
2019.84	18.4006
2020.09	16.4921
2020.34	24.8981
2020.58	14.5812
2020.83	10.8165
2021.08	17.3553
2021.33	19.228
2021.57	20.1656
2021.82	22.0297
2022.07	9.8353
2022.31	22.9212
2022.56	3.22159
2022.81	21.9056
2023.05	5.00461
2023.3	12.435
2023.55	20.8087
2023.8	17.9538
2024.04	-0.796188
2024.29	15.9885
2024.54	15.9453
2024.78	14.0104
2025.03	15.8101
2025.27	20.4121
2025.52	14.7459
2025.77	16.5521
2026.02	12.7637
2026.26	24.819
2026.51	7.10603
2026.76	0.626022
2027	11.92
2027.25	9.23596
2027.5	7.49849
2027.74	1.02652
2027.99	11.2878
2028.23	12.1075
2028.48	11.0089
2028.73	12.4071
2028.98	14.7154
2029.22	14.3961
2029.47	9.36739
2029.72	29.1798
2029.96	9.21477
2030.21	9.02516
2030.45	14.4247
2030.7	18.1375
2030.95	7.73477
2031.19	19.9695
2031.44	8.86742
2031.69	5.10164
2031.93	21.8891
2032.18	13.4881
2032.43	6.99553
2032.67	13.5767
2032.92	7.09256
2033.17	6.20395
2033.41	5.30302
2033.66	19.35
2033.91	8.1729
2034.15	7.25313
2034.4	3.42075
2034.64	-0.431732
2034.89	22.7289
2035.14	12.4126
2035.38	12.4765
2035.63	12.5264
2035.87	14.4829
2036.12	8.9904
2036.37	15.6147
2036.61	16.5347
2036.86	9.89313
2037.11	11.7599
2037.35	7.11751
2037.6	14.5886
2037.84	8.02747
2038.09	9.87349
2038.34	21.0627
2038.58	11.6832
2038.83	10.7146
2039.08	12.5489
2039.32	15.317
2039.57	16.2138
2039.81	11.5072
2040.06	2.1255
2040.31	8.60696
2040.55	8.55402
2040.8	1.04048
2041.04	9.38936
2041.29	15.8751
2041.54	5.58194
2041.78	18.6132
2042.03	10.2054
2042.27	7.37915
2042.52	12.9443
2042.77	-3.87048
2043.01	4.49562
2043.26	9.14638
2043.5	5.42696
2043.75	8.26003
2044	1.7924
2044.24	7.44838
2044.49	1.86905
2044.73	9.31792
2044.98	11.1368
2045.23	3.59584
2045.47	3.4462
2045.72	13.8946
2045.96	11.1421
2046.21	12.3093
2046.45	6.0284
2046.7	3.07787
2046.95	-1.75333
2047.19	12.1265
2047.44	7.46008
2047.68	4.60551
2047.93	-0.19191
2048.17	-4.89255
2048.42	-2.09576
2048.67	3.49921
2048.91	7.23297
2049.16	10.9736
2049.4	2.61685
2049.65	10.108
2049.89	10.1499
2050.14	12.0722
2050.39	5.5757
2050.63	2.81383
2050.88	9.37267
2051.12	8.44099
2051.37	-5.5883
2051.61	0.913071
2051.86	1.79465
2052.11	7.3896
2052.35	-1.95018
2052.6	5.53905
2052.84	9.27629
2053.09	0.884003
2053.33	13.0488
2053.58	-0.939026
2053.82	4.70361
2054.07	3.8398
2054.31	6.67059
2054.56	7.62244
2054.8	8.55804
2055.05	5.74254
2055.3	6.66405
2055.54	-0.835587
2055.79	10.343
2056.03	-1.83638
2056.28	8.43542
2056.52	10.284
2056.77	3.71729
2057.01	2.76686
2057.26	-6.58644
2057.5	3.69791
2057.75	8.37962
2058	3.7204
2058.24	1.86972
2058.49	4.69475
2058.73	2.8589
2058.98	5.69745
2059.22	1.98303
2059.47	15.1078
2059.71	10.4331
2059.96	7.6291
2060.2	5.75539
2060.45	-5.50302
2060.69	0.0848846
2060.94	-4.61609
2061.18	1.94919
2061.43	14.1371
2061.67	10.4052
2061.92	-1.76338
2062.16	-0.828384
2062.41	3.85423
2062.65	3.86127
2062.9	-3.61806
2063.14	-1.7274
2063.39	-4.51428
2063.63	-0.745224
2063.88	3.01987
2064.12	2.09607
2064.37	-10.0796
2064.61	3.05125
2064.86	4.94069
2065.1	8.71095
2065.35	8.7455
2065.59	5.03923
2065.84	-4.30414
2066.08	7.93156
2066.33	-0.489517
2066.57	2.34503
2066.82	4.22589
2067.06	-1.39577
2067.31	8.01051
2067.55	-0.433151
2067.8	-0.416382
2068.04	-3.21335
2068.29	-7.89481
2068.53	1.51596
2068.78	4.34142
2069.02	-1.27873
2069.27	3.41983
2069.51	6.2126
2069.76	-3.23529
2070	12.6616
2070.25	10.7505
2070.49	-2.38654
2070.73	1.43301
2070.98	-6.01132
2071.22	1.58827
2071.47	11.9189
2071.71	-6.94064
2071.96	-0.182358
2072.2	5.52864
2072.45	5.51324
2072.69	5.49753
2072.94	-1.1024
2073.18	-11.4764
2073.43	5.46701
2073.67	7.33751
2073.92	5.45819
2074.16	-1.13077
2074.4	1.69972
2074.65	9.24779
2074.89	0.798599
2075.14	4.60591
2075.38	0.888626
2075.63	-0.930176
2075.87	4.81004
2076.12	4.86522
2076.36	-0.77182
2076.6	1.11665
2076.85	2.0643
2077.09	2.98752
2077.34	9.55739
2077.58	-2.75014
2077.83	-3.76814
2078.07	-1.90302
2078.31	-3.77377
2078.56	1.91608
2078.8	-4.67685
2079.05	-1.83592
2079.29	-2.76033
2079.54	-6.50232
2079.78	-2.65718
2080.03	0.204453
2080.27	3.06281
2080.51	9.69951
2080.76	-5.40144
2081	0.267548
2081.25	3.08287
2081.49	2.12357
2081.74	-7.33249
2081.98	-1.6684
2082.22	-11.1252
2082.47	7.78027
2082.71	-5.43922
2082.96	5.90636
2083.2	4.01657
2083.45	3.06583
2083.69	4.94609
2083.93	-4.51279
2084.18	3.98886
2084.42	-6.40646
2084.67	8.70801
2084.91	4.92786
2085.15	-6.40999
2085.4	6.81856
2085.64	5.87009
2085.89	-6.41734
2086.13	-5.46463
2086.37	5.91574
2086.62	12.5849
2086.86	5.05463
2087.11	10.744
2087.35	-8.16032
2087.59	-6.24579
2087.84	0.39064
2088.08	8.90645
2088.32	0.388885
2088.57	3.22951
2088.81	-2.44478
2089.06	0.400299
2089.3	1.3517
2089.54	-1.46631
2089.79	0.451141
2090.03	0.49054
2090.28	-0.444534
2090.52	-2.33372
2090.76	1.46428
2091.01	-2.31349
2091.25	-3.24664
2091.5	7.19247
2091.74	10.0508
2091.98	0.611023
2092.23	4.448
2092.47	7.34337
2092.72	5.49612
2092.96	-5.84126
2093.2	1.79352
2093.45	-7.66721
2093.69	-0.030899
2093.93	12.359
2094.18	9.54015
2094.42	8.61839
2094.66	-3.73409
2094.91	2.91829
2095.15	1.00653
2095.39	9.54823
2095.64	5.71558
2095.88	5.68274
2096.13	5.65691
2096.37	-5.76537
2096.61	3.72073
2096.86	-5.78757
2097.1	6.55275
2097.34	-0.120712
2097.59	2.69417
2097.83	2.65938
2098.07	-1.15404
2098.32	6.42932
2098.56	-9.71877
2098.8	-4.99712
2099.05	11.1356
2099.29	-4.05692
2099.53	1.62566
2099.78	-5.97621
2100.02	12.9984
2100.27	3.50723
2100.51	1.61162
2100.75	-0.280396
2101	-4.06401
2101.24	-9.72546
2101.48	-4.0014
2101.73	-1.13544
2101.97	-6.82706
2102.21	0.768951
2102.45	-4.93633
2102.7	4.56009
2102.94	-5.89941
2103.18	2.61989
2103.43	-5.96046
2103.67	-0.28421
2103.92	0.658066
2104.16	7.29103
2104.4	-2.20093
2104.64	1.60706
2104.89	-6.91631
2105.13	6.39856
2105.37	4.51953
2105.62	4.54555
2105.86	-8.72279
2106.1	-1.09398
2106.35	-1.07922
2106.59	-8.67047
2106.83	-2.01096
2107.08	3.69724
2107.32	-5.79796
2107.56	7.51563
2107.8	11.2975
2108.05	1.75735
2108.29	6.46492
2108.53	6.41696
2108.78	-4.07733
2109.02	-4.1125
2109.26	8.21526
2109.51	1.57314
2109.75	-1.23793
2109.99	1.6412
2110.23	5.44022
2110.48	-10.7116
2110.72	11.135
2110.96	-1.21785
2111.21	-7.87012
2111.45	1.6255
2111.69	-1.23787
2111.93	9.18558
2112.18	3.46756
2112.42	-1.29301
2112.66	-5.09509
2112.91	1.56535
2113.15	2.52898
2113.39	2.54533
2113.63	-4.06923
2113.88	7.3643
2114.12	2.62517
2114.36	0.712067
2114.61	-0.255157
2114.85	2.58983
2115.09	3.5448
2115.33	0.694672
2115.58	0.683243
2115.82	-5.98523
2116.06	2.55196
2116.31	-0.314774
2116.55	-1.29935
2116.79	-3.23181
2117.03	6.2477
2117.28	6.23647
2117.52	0.529236
2117.76	-2.31604
2118	9.05965
2118.25	-2.36215
2118.49	0.456787
2118.73	-1.48592
2118.97	-8.17587
2119.22	5.06577
2119.46	-1.60963
2119.7	-2.59358
2119.94	5.90245
2120.19	-0.764633
2120.43	-5.52823
2120.67	6.77855
2120.91	10.5706
2121.16	-2.67258
2121.4	3.02585
2121.64	6.85097
2121.88	0.250549
2122.13	8.819
2122.37	-3.4823
2122.61	8.87877
2122.85	3.20718
2123.1	2.27667
2123.34	-0.555679
2123.58	-4.34314
2123.82	-7.18835
2124.07	1.34044
2124.31	-5.32506
2124.55	9.8306
2124.79	5.98888
2125.03	-4.51204
2125.28	0.151306
2125.52	-5.60718
2125.76	-5.66266
2126	-5.71257
2126.25	3.70622
2126.49	2.71445
2126.73	-8.67732
2126.97	-4.92809
2127.21	0.710297
2127.46	3.5106
2127.7	0.656372
2127.94	-2.1915
2128.18	-6.93141
2128.43	8.17413
2128.67	0.598053
2128.91	2.48575
2129.15	-7.91487
2129.39	-3.19815
2129.64	9.07303
2129.88	-3.22813
2130.12	5.26689
2130.36	-1.3597
2130.6	0.517258
2130.85	-5.16766
2131.09	8.04094
2131.33	3.29362
2131.57	-0.511902
2131.81	3.23732
2132.06	-0.56604
2132.3	2.24741
2132.54	-5.32704
2132.78	-5.36067
2133.02	1.2133
2133.27	5.91241
2133.51	-11.0784
2133.75	-5.41425
2133.99	-9.18681
2134.23	-1.63943
2134.48	-3.5237
2134.72	-4.46645
2134.96	11.5695
2135.2	5.89833
2135.44	5.88985
2135.68	3.9904
2135.93	5.85742
2136.17	3.93845
2136.41	0.112808
2136.65	-2.76707
2136.89	-10.3354
2137.14	6.63614
2137.38	4.75363
2137.62	3.81006
2137.86	8.53819
2138.1	1.96846
2138.34	3.83833
2138.59	7.5591
2138.83	1.86453
2139.07	-0.938477
2139.31	3.82347
2139.55	-2.74579
2139.79	-0.941696
2140.03	-9.48743
2140.28	-0.094635
2140.52	-1.06503
2140.76	-0.147247
2141	-1.11044
2141.24	3.58211
2141.49	-5.85277
2141.73	6.38843
2141.97	-6.83157
2142.21	10.075
2142.45	-3.12224
2142.69	10.0518
2142.93	-5.92508
2143.18	-7.789
2143.42	9.29324
2143.66	3.57002
2143.9	-2.47717
2144.14	-9.06003
2144.38	6.94066
2144.62	-3.34784
2144.87	-0.477707
2145.11	6.13428
2145.35	-6.18681
2145.59	5.10414
2145.83	-6.17632
2146.07	6.03354
2146.31	0.374222
2146.55	1.2961
2146.8	-2.48157
2147.04	6.90038
2147.28	8.75893
2147.52	13.4291
2147.76	-8.20879
2148	7.73849
2148.24	2.0802
2148.48	8.63153
2148.73	-8.29739
2148.97	-2.68779
2149.21	6.67218
2149.45	-1.81468
2149.69	-0.918365
2149.93	5.57747
2150.17	-0.0923309
2150.42	6.4225
2150.66	4.50945
2150.9	7.29962
2151.14	-0.206802
2151.38	-4.88533
2151.62	3.57304
2151.86	-6.72925
2152.1	1.72926
2152.34	-3.89185
2152.58	2.69089
2152.83	8.2886
2153.07	-1.11702
2153.31	-1.15121
2153.55	1.62946
2153.79	-3.07576
2154.03	5.33952
2154.27	-1.25264
2154.51	2.45073
2154.75	6.13655
2154.99	-7.0442
2155.24	2.24733
2155.48	-2.50685
2155.72	-4.43199
2155.96	2.99438
2156.2	0.14418
2156.44	2.91132
2156.68	1.02055
2156.92	0.0737457
2157.16	-0.869858
2157.4	6.59843
2157.64	0.065567
2157.89	1.95071
2158.13	3.84386
2158.37	0.125671
2158.61	3.86572
2158.85	-1.74928
2159.09	-4.56606
2159.33	14.1068
2159.57	1.93106
2159.81	-2.77243
2160.05	-0.94136
2160.29	-4.72154
2160.53	-1.0313
2160.77	4.5289
2161.01	-4.84172
2161.25	1.66772
2161.5	3.51939
2161.74	0.699127
2161.98	-6.78558
2162.22	1.59912
2162.46	-0.273148
2162.7	8.11777
2162.94	4.37737
2163.18	10.8868
2163.42	-5.93034
2163.66	3.3727
2163.9	-7.84
2164.14	-9.72742
2164.38	-6.9543
2164.62	3.25986
2164.86	6.00677
2165.11	0.383636
2165.35	-6.13831
2165.59	3.18892
2165.83	-3.33803
2166.07	5.04477
2166.31	-9.86967
2166.55	-3.37094
2166.79	1.26413
2167.03	4.02853
2167.27	-0.66713
2167.51	1.16554
2167.75	-5.3949
2167.99	14.0977
2168.23	-6.45831
2168.47	5.55542
2168.71	-10.2814
2168.95	-1.92436
2169.19	-12.1488
2169.43	-1.90742
2169.67	12.9987
2169.91	3.73752
2170.15	4.71782
2170.39	5.70564
2170.63	2.01131
2170.87	-0.775055
2171.11	-3.58621
2171.35	7.54919
2171.59	1.94176
2171.83	-4.64368
2172.07	5.47075
2172.31	-0.174225
2172.56	3.50642
2172.79	2.54233
2173.04	3.4427
2173.28	-0.285019
2173.51	2.49295
2173.76	0.625717
2174	-4.01529
2174.24	-1.21445
2174.48	-8.64137
2174.72	9.94664
2174.96	-3.99927
2175.2	0.639694
2175.44	-6.8053
2175.68	8.04718
2175.92	5.24173
2176.16	-4.06345
2176.4	4.28426
2176.64	-5.0275
2176.88	0.515152
2177.12	6.0715
2177.36	-5.08226
2177.6	0.48851
2177.84	6.05806
2178.08	-5.0999
2178.32	-0.456253
2178.55	1.37929
2178.8	5.04353
2179.03	2.21815
2179.28	-4.29237
2179.52	10.563
2179.75	4.98749
2180	-0.58902
2180.23	-4.31087
2180.47	3.10881
2180.71	-3.40257
2180.95	-4.34819
2181.19	0.276428
2181.43	3.97798
2181.67	4.88879
2181.91	-3.49161
2182.15	-3.51668
2182.39	-1.67628
2182.63	-9.12723
2182.87	1.98465
2183.11	5.67316
2183.35	2.8511
2183.59	1.87967
2183.83	-6.51819
2184.07	3.6376
2184.31	1.75095
2184.55	-0.133179
2184.79	1.70511
2185.03	4.48273
2185.27	-5.70215
2185.51	-4.77129
2185.75	5.42822
2185.99	5.44101
2186.23	-6.59108
2186.47	4.55624
2186.7	-3.76932
2186.95	2.76132
2187.18	-1.83745
2187.42	-2.72676
2187.66	1.02519
2187.9	1.98114
2188.14	10.3418
2188.38	3.8152
2188.62	-4.57755
2188.86	8.382
2189.1	2.76927
2189.34	0.866821
2189.58	2.67056
2189.82	-1.09988
2190.06	-0.224136
2190.3	-3.03384
2190.54	-2.12112
2190.78	-3.05237
2191.01	1.58875
2191.25	3.44873
2191.49	-0.267624
2191.73	7.1517
2191.97	-14.17
2192.21	1.60101
2192.45	4.38988
2192.69	-0.242218
2192.93	-0.235458
2193.17	4.42242
2193.41	-12.2602
2193.65	0.749832
2193.89	-1.07863
2194.13	-2.87613
2194.36	3.69615
2194.6	0.952881
2194.84	1.90334
2195.08	1.88676
2195.32	1.86003
2195.56	-6.52898
2195.8	1.8028
2196.04	-2.88518
2196.28	-2.9373
2196.52	-2.99956
2196.76	10.8655
2197	-1.24814
2197.23	4.28055
2197.47	-3.17593
2197.71	7.92313
2197.95	0.496109
2198.19	0.492905
2198.43	6.06808
2198.67	1.46046
2198.91	-1.29102
2199.15	7.10397
2199.38	4.36749
2199.62	-3.95355
2199.86	-5.76866
2200.1	4.50026
2200.34	3.64136
2200.58	-6.51579
2200.82	4.72017
2201.06	8.505
2201.3	1.09338
2201.54	-3.53462
2201.77	13.161
2202.01	-0.0517883
2202.25	8.88884
2202.49	12.349
2202.73	-7.03468
2202.97	9.02312
2203.21	3.56592
2203.45	-2.06789
2203.68	6.25949
2203.92	0.812286
2204.16	-2.41393
2204.4	1.11519
2204.64	-0.770035
2204.88	2.04671
2205.12	0.996445
2205.36	2.70778
2205.59	5.36253
2205.83	3.40306
2206.07	0.581482
2206.31	-5.93097
2206.55	1.53604
2206.79	0.603653
2207.03	-0.393265
2207.26	6.11662
2207.5	-0.375427
2207.74	3.36636
2207.98	-0.328506
2208.22	0.628448
2208.46	2.51627
2208.7	-6.76675
2208.93	-9.53989
2209.17	6.30334
2209.41	-3.93069
2209.65	2.59041
2209.89	9.10292
2210.13	4.43379
2210.36	-2.08731
2210.6	-6.73209
2210.84	1.66649
2211.08	-3.90564
2211.32	7.29469
2211.56	-2.00803
2211.8	12.9263
2212.03	-1.96265
2212.27	-5.66693
2212.51	12.0714
2212.75	-2.84892
2212.99	2.72958
2213.23	6.43631
2213.46	-1.04819
2213.7	2.6488
2213.94	5.40947
2214.18	-0.183121
2214.42	-2.95682
2214.66	0.832031
2214.89	-10.3132
2215.13	-4.70404
2215.37	3.70349
2215.61	-9.36345
2215.85	3.70671
2216.08	1.83607
2216.32	-0.971603
2216.56	-0.981293
2216.8	2.74147
2217.04	6.461
2217.28	5.51341
2217.51	-6.63074
2217.75	0.836533
2217.99	-8.50002
2218.23	1.76234
2218.47	1.75305
2218.7	-0.114716
2218.94	1.76149
2219.18	-7.56255
2219.42	-2.87231
2219.66	13.0325
2219.9	-1.90575
2220.13	5.58296
2220.37	2.78844
2220.61	-3.76486
2220.85	-0.975357
2221.09	1.81538
2221.32	4.595
2221.56	-4.79338
2221.8	9.16751
2222.04	-1.14848
2222.27	6.28297
2222.51	-3.08003
2222.75	-0.291229
2222.99	2.51387
2223.23	-4.00551
2223.46	2.54729
2223.7	6.30385
2223.94	-3.93987
2224.18	-5.77016
2224.42	11.0968
2224.65	-0.0817871
2224.89	10.2394
2225.13	-5.63379
2225.37	5.62148
2225.6	7.52768
2225.84	-1.79356
2226.08	5.72668
2226.32	1.07141
2226.56	5.78406
2226.79	5.80309
2227.03	0.208511
2227.27	3.98262
2227.51	-6.31107
2227.74	4.9532
2227.98	6.83331
2228.22	5.88484
2228.46	3.9903
2228.69	-2.5916
2228.93	-0.733887
2229.17	6.75131
2229.41	2.98592
2229.64	6.72922
2229.88	-0.750305
2230.12	-1.65283
2230.36	4.94617
2230.6	-1.59865
2230.83	8.74889
2231.07	-0.609756
2231.31	-2.45981
2231.55	-1.49016
2231.78	6.05717
2232.02	-7.07054
2232.26	7.05011
2232.5	-3.2623
2232.73	1.46318
2232.97	0.546509
2233.21	-3.19098
2233.45	5.29741
2233.68	-2.20511
2233.92	-13.4738
2234.16	-0.282455
2234.39	-2.15288
2234.63	-4.9912
2234.87	0.63739
2235.11	2.49435
2235.34	4.34119
2235.58	1.4554
2235.82	-6.11438
2236.06	14.5711
2236.29	5.16881
2236.53	1.41049
2236.77	1.41409
2237	-6.10951
2237.24	-9.86934
2237.48	-0.430786
2237.72	3.36182
2237.95	-0.346542
2238.19	2.54037
2238.43	0.712814
2238.67	-7.73018
2238.9	-8.63815
2239.14	-1.99629
2239.38	-0.0572205
2239.61	0.892014
2239.85	3.70293
2240.09	-3.87035
2240.33	2.68173
2240.56	-3.96225
2240.8	-2.10033
2241.04	6.44962
2241.27	-1.98274
2241.51	0.853027
2241.75	3.68939
2241.99	-6.68277
2242.22	5.59044
2242.46	-7.61302
2242.7	0.894165
2242.93	6.57387
2243.17	14.1253
2243.41	-4.76683
2243.64	-2.90428
2243.88	5.56146
2244.12	-6.72408
2244.36	1.76009
2244.59	3.64844
2244.83	2.72516
2245.07	-6.67278
2245.3	-6.6145
2245.54	2.88643
2245.78	0.0850677
2246.01	8.62044
2246.25	9.59773
2246.49	4.89958
2246.72	4.92372
2246.96	6.82822
2247.2	2.11888
2247.43	4.97845
2247.67	-3.52611
2247.91	-13.9341
2248.14	3.09631
2248.38	1.19113
2248.62	2.12381
2248.85	-7.35316
2249.09	3.04359
2249.33	1.13829
2249.56	3.02049
2249.8	-1.68643
2250.04	-1.67046
2250.27	0.2173
2250.51	-6.43086
2250.75	3.94382
2250.98	-3.66125
2251.22	0.0810089
2251.46	4.77628
2251.69	5.69492
2251.93	-1.88086
2252.17	-6.60529
2252.4	6.6465
2252.64	-7.51642
2252.88	1.02486
2253.11	8.6434
2253.35	9.67885
2253.59	13.5297
2253.82	5.99947
2254.06	6.03625
2254.3	-4.36186
2254.53	3.25002
2254.77	-5.26387
2255.01	-0.522583
2255.24	-1.48877
2255.48	-3.37976
2255.72	-2.43304
2255.95	-1.48134
2256.19	-6.21814
2256.42	-9.98781
2256.66	-1.42409
2256.9	-0.449844
2257.13	1.47192
2257.37	4.34459
2257.61	2.47086
2257.84	3.44376
2258.08	3.45988
2258.32	-2.23021
2258.55	13.919
2258.79	-12.6634
2259.02	-6.9521
2259.26	0.667786
2259.5	8.29137
2259.73	0.704514
2259.97	11.1697
2260.2	0.733688
2260.44	3.60091
2260.68	-3.98926
2260.91	-3.97578
2261.15	1.75243
2261.39	-2.95302
2261.62	-1.01794
2261.86	4.69717
2262.1	-1.95439
2262.33	0.912674
2262.57	-1.92949
2262.8	5.7067
2263.04	-0.923218
2263.28	8.63434
2263.51	-0.846741
2263.75	-7.46806
2263.98	8.7888
2264.22	-4.49449
2264.46	8.9192
2264.69	2.29779
2264.93	2.34479
2265.16	7.15773
2265.4	6.2372
2265.64	4.35637
2265.87	-3.28004
2266.11	-4.229
2266.34	2.4449
2266.58	11.0038
2266.81	-7.17717
2267.05	4.23917
2267.29	-0.56871
2267.52	-1.54933
2267.76	-3.48087
2267.99	-4.45949
2268.23	-0.679092
2268.47	10.7364
2268.7	4.05202
2268.94	-2.61676
2269.17	-0.68718
2269.41	10.7939
2269.65	-1.56363
2269.88	-9.15291
2270.12	5.2137
2270.35	-1.41309
2270.59	8.19162
2270.82	2.49179
2271.06	8.2475
2271.3	12.109
2271.53	5.44855
2271.77	-3.1349
2272	-5.02417
2272.24	-5.9501
2272.47	12.2434
2272.71	10.3352
2272.95	-4.00623
2273.18	-10.694
2273.42	1.75528
2273.65	5.59308
2273.89	0.818893
2274.12	0.829391
2274.36	16.1526
2274.6	-9.67989
2274.83	-1.05556
2275.07	2.78415
2275.3	1.84038
2275.54	0.894058
2275.77	-4.83817
2276.01	3.7757
2276.24	0.92952
2276.48	0.970276
2276.72	8.67725
2276.95	-2.78242
2277.18	0.127213
2277.42	-1.75166
2277.66	5.01633
2277.89	0.284103
2278.13	-1.56982
2278.36	-3.41966
2278.6	-4.35364
2278.83	-6.26019
2279.07	-3.3743
2279.3	1.42468
2279.54	3.33777
2279.78	-2.45026
2280.01	5.15968
2280.24	-3.52139
2280.48	-12.1942
2280.72	-0.717514
2280.95	0.213257
2281.19	9.78014
2281.42	2.09755
2281.66	-5.58815
2281.89	-9.43332
2282.13	-5.57921
2282.36	4.98012
2282.6	-0.745117
2282.83	6.00276
2283.07	-0.668808
2283.3	-1.58783
2283.54	1.3403
2283.77	2.36835
2284.01	2.44818
2284.24	-3.24493
2284.48	5.48596
2284.71	0.726044
2284.95	-2.13657
2285.19	7.52475
2285.42	1.79295
2285.65	1.80949
2285.89	6.63036
2286.12	-3.98546
2286.36	1.73032
2286.59	8.46199
2286.83	10.4027
2287.06	-2.07143
2287.3	6.66969
2287.54	-2.88922
2287.77	5.80632
2288	1.97649
2288.24	-3.75499
2288.47	0.0916748
2288.71	6.81467
2288.94	-13.4308
2289.18	8.69452
2289.41	3.83444
2289.65	0.890778
2289.88	12.3835
2290.12	4.62405
2290.35	-5.00885
2290.59	6.5163
2290.82	2.6765
2291.06	0.762222
2291.29	1.75255
2291.53	-10.7026
2291.76	4.74635
2292	-0.984894
2292.23	-4.80194
2292.47	-10.5459
2292.7	1.0428
2292.94	6.86523
2293.17	0.164444
2293.41	5.01576
2293.64	-1.69968
2293.88	-9.38683
2294.11	-0.697891
2294.34	1.2231
2294.58	4.10034
2294.81	-6.51842
2295.05	-5.57886
2295.28	2.11043
2295.52	-4.64815
2295.75	-2.73894
2295.99	11.6872
2296.22	3.0079
2296.46	5.86282
2296.69	4.83835
2296.93	0.0245056
2297.16	-8.61569
2297.39	-8.58835
2297.63	2.99538
2297.86	-1.77513
2298.1	-3.65041
2298.33	7.00565
2298.57	-2.58694
2298.8	5.15111
2299.04	-14.0877
2299.27	-2.47421
2299.51	-2.43394
2299.74	2.4229
2299.97	2.44508
2300.21	2.44872
2300.44	8.24359
2300.68	-1.40076
2300.91	5.37726
2301.15	7.34183
2301.38	-10.0014
2301.61	8.36011
2301.85	-0.309219
2302.08	12.2492
2302.32	-7.05505
2302.55	-0.306519
2302.79	1.619
2303.02	-0.301086
2303.25	1.6317
2303.49	-4.16161
2303.72	4.52773
2303.96	5.5022
2304.19	4.55963
2304.43	11.3518
2304.66	3.6613
2304.89	-2.10776
2305.13	-8.83916
2305.36	-4.94014
2305.6	-3.95009
2305.83	4.75943
2306.07	7.6781
2306.3	3.84047
2306.53	4.83356
2306.77	4.84717
2307	-0.942627
2307.24	4.86089
2307.47	2.92873
2307.7	-2.8788
2307.94	0.00665283
2308.17	2.89964
2308.41	10.6203
2308.64	-0.0150757
2308.87	-2.90753
2309.11	2.90286
2309.34	-2.86429
2309.58	4.9006
2309.81	2.04794
2310.04	5.97362
2310.28	6.98286
2310.51	4.10318
2310.75	13.788
2310.98	2.18047
2311.21	3.1366
2311.45	-0.763748
2311.68	7.84966
2311.92	2.91772
2312.15	0.93483
2312.38	-1.99602
2312.62	-2.01344
2312.85	6.64944
2313.08	1.80896
2313.32	-6.87161
2313.55	0.871964
2313.79	13.4757
2314.02	-1.9019
2314.25	-1.84947
2314.49	-1.79718
2314.72	5.02292
2314.95	0.255798
2315.19	4.18472
2315.42	-2.5538
2315.66	4.18028
2315.89	8.97934
2316.12	7.01689
2316.36	-1.72165
2316.59	4.95895
2316.82	8.77982
2317.06	2.00175
2317.29	10.6933
2317.52	9.7417
2317.76	-0.866333
2317.99	7.87466
2318.23	4.045
2318.46	3.99387
2318.69	2.03987
2318.93	11.6782
2319.16	0.0709686
2319.39	-5.74284
2319.63	-0.936005
2319.86	-1.91425
2320.09	3.86787
2320.33	1.94283
2320.56	-5.76828
2320.79	0.989273
2321.03	2.93883
2321.26	10.6888
2321.5	-5.69019
2321.73	-1.79536
2321.96	12.7294
2322.2	4.08763
2322.43	9.94066
2322.66	4.18872
2322.9	11.9426
2323.13	-6.42937
2323.36	7.11517
2323.6	-0.603928
2323.83	4.24281
2324.06	20.6953
2324.3	6.19884
2324.53	-1.54135
2324.76	12.9575
2325	9.05077
2325.23	17.6981
2325.46	17.6366
2325.7	20.4945
2325.93	26.2547
2326.16	26.2196
2326.4	30.0439
2326.63	30.0047
2326.86	39.6131
2327.09	59.8283
2327.33	86.7853
2327.56	119.514
2327.79	135.863
2328.03	118.464
2328.26	115.541
2328.49	96.2789
2328.73	66.4017
2328.96	37.4912
2329.19	29.7422
2329.43	26.8147
2329.66	17.132
2329.89	22.8939
2330.13	23.8484
2330.36	15.2028
2330.59	20.0056
2330.82	11.3217
2331.06	14.1938
2331.29	7.44527
2331.52	2.64005
2331.76	2.66251
2331.99	0.761093
2332.22	9.47083
2332.46	11.3489
2332.69	0.717651
2332.92	-0.27124
2333.16	11.259
2333.39	1.60559
2333.62	3.50758
2333.85	12.1494
2334.09	10.2049
2334.32	-4.25743
2334.55	3.41006
2334.79	2.4016
2335.02	1.41135
2335.25	5.23711
2335.48	3.30356
2335.72	9.05936
2335.95	4.25279
2336.18	13.8767
2336.41	-1.52142
2336.65	-0.582123
2336.88	-3.48277
2337.11	-2.5341
2337.34	5.14554
2337.58	-2.56053
2337.81	-1.61235
2338.04	6.05792
2338.28	3.15552
2338.51	-5.50998
2338.74	1.20314
2338.97	5.03516
2339.21	10.8005
2339.44	2.14569
2339.67	-0.746994
2339.91	-0.760666
2340.14	9.78961
2340.37	10.7204
2340.6	5.87805
2340.84	3.91849
2341.07	0.0300446
2341.3	-1.94543
2341.53	-6.80614
2341.77	1.76036
2342	-0.216034
2342.23	-1.21555
2342.46	0.664154
2342.7	0.627731
2342.93	9.22546
2343.16	1.53406
2343.39	-2.31627
2343.63	2.46541
2343.86	-4.26549
2344.09	9.13406
2344.32	3.37128
2344.56	-1.42474
2344.79	5.27698
2345.02	6.21616
2345.25	7.14873
2345.49	6.15707
2345.72	1.32277
2345.95	-2.56795
2346.18	2.17593
2346.41	0.213272
2346.65	4.01508
2346.88	8.7765
2347.11	2.04735
2347.34	1.05754
2347.58	1.02635
2347.81	8.66338
2348.04	-2.84081
2348.27	-4.76541
2348.5	0.979095
2348.74	-4.77408
2348.97	-9.58377
2349.2	-4.83095
2349.43	13.3132
2349.67	-4.00914
2349.9	0.684677
2350.13	-0.374939
2350.36	-0.49353
2350.59	0.320984
2350.83	10.5779
2351.06	5.43205
2351.29	6.62453
2351.52	5.2621
2351.75	6.36658
2351.99	1.22101
2352.22	8.64888
2352.45	-5.67934
2352.68	17.2234
2352.91	2.77693
2353.15	12.1309
2353.38	-2.30661
2353.61	6.27977
2353.84	10.0464
2354.07	7.12679
2354.31	2.33679
2354.54	4.20506
2354.77	0.404572
2355	6.12921
2355.23	2.28082
2355.47	8.90761
2355.7	-1.6203
2355.93	5.95238
2356.16	0.18364
2356.39	6.78818
2356.63	2.89091
2356.86	-3.88367
2357.09	9.33832
2357.32	8.3159
2357.55	3.49545
2357.79	-6.07666
2358.02	0.516953
2358.25	5.20805
2358.48	-4.35252
2358.71	-2.50352
2358.94	4.07281
2359.18	4.01558
2359.41	3.0128
2359.64	3.9117
2359.87	8.59825
2360.1	10.4253
2360.33	-5.79523
2360.57	-1.12955
2360.8	-0.262131
2361.03	1.55283
2361.26	-4.22253
2361.49	-12.8424
2361.72	-5.34146
2361.96	-0.689377
2362.19	7.74908
2362.42	1.02106
2362.65	-1.9126
2362.88	-6.73344
2363.11	-5.8689
2363.34	-3.1084
2363.58	6.27878
2363.81	4.31398
2364.04	3.29617
2364.27	8.89932
2364.5	-11.9901
2364.73	-0.718307
2364.97	12.4405
