#Acq. time (s)=	30
#Accumulations=	2
#Range (cm-¹)=	100...4000
#Windows=	1
#Auto scanning=	Off
#Autofocus=	Off
#Macrospot=	Off
#AutoExposure=	Off
#Spike filter=	Multiple accum.
#Delay time (s)=	2
#Binning=	1
#Readout mode=	Signal
#DeNoise=	Off
#ICS correction=	On
#Dark correction=	Off
#Inst. Process=	Off
#Detector Gain=	Best Dynamic
#Detector ADC=	50 kHz HS
#Detector temperature (°C)=	-60.09
#Instrument=	LabRAM HR Evol
#Detector=	SIN-EM FIVIS
#Objective=	x100_VIS
#Grating=	150 (500nm)
#ND Filter=	100%
#Laser=	633nm_Edge
#Hole=	49.98
#Temperature=	0
#Range=	Visible
#StageXY=	75x50mm Scan+
#StageZ=	Z motor
#X (µm)=	0
#Y (µm)=	0
#Z (µm)=	-270.9
#Full time(mm:ss)=	1:04
#Project=	21_11_04
#Sample=	BU19w
#Site=	
#Title=	BU19w-E-FF11-FI10-V_150 (500nm)_633nm_Edge_100%_x100_VIS_H50um_30sX2
#Remark=	
#Date=	04.11.2021 11:51
#Acquired=	04.11.2021 11:51:31
#Base:Fit=	16.12.2021 17:39:50
#Base:Edit=	16.12.2021 17:54:49
#Base:Edit=	16.12.2021 17:54:49
#Base:Edit=	16.12.2021 17:54:49
#Base:Edit=	16.12.2021 17:54:50
#Base:Edit=	16.12.2021 17:54:50
#Base:Edit=	16.12.2021 17:54:50
#Base:Edit=	16.12.2021 17:54:50
#Base:Edit=	16.12.2021 17:54:51
#Base:Edit=	16.12.2021 17:54:52
#Base:Edit=	16.12.2021 17:54:52
#Base:Edit=	16.12.2021 17:54:52
#Base:Edit=	16.12.2021 17:54:53
#Base:Edit=	16.12.2021 17:54:53
#Base:Edit=	16.12.2021 17:54:54
#Peaks:Remove=	16.12.2021 17:54:56
#Peaks:Remove=	16.12.2021 17:54:59
#Base:Sub=	16.12.2021 17:55:05
102.881	46.6759
106.139	38.0573
109.397	38.9623
112.653	26.48
115.908	30.2022
119.161	19.559
122.414	21.3211
125.664	19.2343
128.914	13.305
132.162	7.34372
135.409	12.84
138.654	17.3512
141.898	19.934
145.14	26.3403
148.383	22.2019
151.622	26.6693
154.861	16.7744
158.098	18.352
161.335	28.5425
164.569	24.3507
167.801	29.7197
171.034	30.2743
174.264	26.0094
177.494	12.131
180.721	7.82013
183.949	8.27108
187.173	4.87183
190.396	11.0173
193.62	-0.0575333
196.84	0.339912
200.061	0.743698
203.279	0.214706
206.496	0.6269
209.712	8.65437
212.926	1.40694
216.139	3.69315
219.352	4.05998
222.562	-2.25916
225.772	9.51173
228.979	12.6659
232.185	30.0886
235.392	37.9865
238.595	50.6263
241.797	48.9978
244.999	34.1032
248.199	23.9491
251.397	15.6797
254.595	8.35442
257.791	12.4214
260.985	13.6383
264.178	16.7475
267.371	17.0089
270.561	14.4245
273.75	13.7346
276.939	13.0419
280.125	19.9237
283.31	24.8939
286.494	20.3732
289.678	29.109
292.859	21.7208
296.039	12.4414
299.217	15.4698
302.396	13.7584
305.572	10.1495
308.746	14.1026
311.919	16.1612
315.093	18.216
318.263	27.8176
321.433	36.4824
324.601	53.6397
327.768	78.333
330.935	92.6531
334.099	65.4635
337.262	53.3623
340.423	28.0596
343.584	25.3874
346.743	17.9905
349.902	21.9051
353.058	21.0949
356.213	24.9846
359.367	24.1585
362.52	21.4461
365.671	16.8518
368.821	26.3587
371.971	17.0678
375.119	20.9235
378.265	8.82433
381.41	7.99061
384.553	5.29606
387.696	2.62526
390.837	10.2875
393.976	5.76724
397.116	6.88752
400.253	8.97475
403.389	1.63948
406.524	8.42437
409.657	4.84143
412.789	10.6837
415.92	0.450485
419.05	7.23255
422.178	7.37879
425.305	9.38347
428.431	13.222
431.555	15.1448
434.678	21.7772
437.8	23.6787
440.921	18.989
444.04	19.9427
447.158	22.7605
450.275	16.1931
453.391	26.4902
456.505	33.0333
459.618	19.0452
462.73	25.6205
465.84	28.4826
468.949	22.0258
472.057	8.13572
475.164	11.0318
478.27	3.69102
481.374	5.66046
484.477	10.4224
487.579	6.79899
490.679	7.83576
493.778	8.87642
496.876	10.8449
499.973	8.15577
503.068	8.27044
506.162	16.7776
509.255	18.7605
512.346	24.4845
515.436	16.2108
518.525	21.02
521.613	24.916
524.7	19.4676
527.785	20.5761
530.869	27.3271
533.952	29.4111
537.033	18.3339
540.113	18.5111
543.192	18.6755
546.27	20.7116
549.347	17.0553
552.423	11.5155
555.497	13.5216
558.568	11.7208
561.64	9.88974
564.711	13.708
567.78	9.02467
570.848	13.745
573.915	7.16516
576.979	6.22294
580.043	3.41268
583.107	9.04077
586.169	2.51985
589.228	10.0189
592.287	13.7992
595.345	7.33435
598.402	15.8013
601.458	14.0561
604.511	17.9253
607.565	15.2706
610.617	22.8998
613.667	23.0712
616.716	25.1416
619.764	28.1567
622.811	21.7971
625.856	13.5457
628.9	17.4833
631.944	16.6805
634.986	13.0179
638.026	11.2133
641.066	8.44646
644.104	16.0146
647.14	9.46704
650.177	5.75004
653.211	4.83717
656.244	9.54496
659.276	17.9867
662.308	1.14817
665.336	12.3856
668.365	6.80177
671.393	9.64798
674.418	4.1512
677.443	3.31116
680.467	6.19528
683.489	7.2348
686.511	-0.113403
689.53	0.0170555
692.549	4.83467
695.567	0.302113
698.582	2.31828
701.598	5.27383
704.611	1.65644
707.624	4.60391
710.635	0.957615
713.646	1.96648
716.655	3.91685
719.662	3.98523
722.669	-0.6357
725.674	-1.51353
728.679	7.91327
731.681	-0.484577
734.683	2.36802
737.683	8.02081
740.683	0.580898
743.681	6.22982
746.678	3.47874
749.673	0.734093
752.669	-0.127811
755.661	6.4664
758.654	4.697
761.645	3.88643
764.635	4.96124
767.623	7.92135
770.611	11.8269
773.597	4.48706
776.582	6.51353
779.565	1.94883
782.549	0.187592
785.53	2.18217
788.511	5.11666
791.489	1.4466
794.466	8.13911
797.444	7.27732
800.419	4.5149
803.394	6.45803
806.366	2.73834
809.339	8.43672
812.309	7.52858
815.278	6.61282
818.247	6.63119
821.214	1.95732
824.18	-0.83527
827.145	7.6021
830.108	2.95287
833.072	2.07728
836.033	9.6272
838.992	8.78978
841.952	7.0431
844.909	6.22086
847.865	6.33812
850.822	8.34036
853.776	0.955788
856.728	5.78527
859.681	11.5725
862.631	5.11335
865.58	6.1923
868.528	6.327
871.476	9.29072
874.422	8.45061
877.366	14.2323
880.311	13.3733
883.253	11.5558
886.194	14.4707
889.134	14.5282
892.074	6.03886
895.012	18.4119
897.948	12.7449
900.883	19.3726
903.818	10.8481
906.751	16.508
909.683	15.545
912.614	11.7596
915.543	17.393
918.473	13.6423
921.4	13.669
924.326	11.8382
927.251	15.6568
930.174	13.8686
933.098	16.7784
936.019	15.9571
938.94	12.3341
941.859	20.0439
944.777	23.9963
947.693	24.1797
950.61	26.2637
953.525	33.1075
956.438	34.2408
959.35	39.1808
962.261	37.4248
965.171	36.599
968.08	39.6011
970.988	43.5476
973.894	36.9159
976.801	43.6894
979.705	63.8547
982.608	69.5885
985.51	85.8408
988.411	91.524
991.311	86.6658
994.209	76.0733
997.107	67.4181
1000	67.3785
1002.9	56.8595
1005.79	46.3707
1008.68	49.2536
1011.58	48.37
1014.47	45.5903
1017.36	49.4815
1020.25	50.5207
1023.13	50.6353
1026.02	53.6449
1028.9	49.0052
1031.79	47.2349
1034.67	37.7857
1037.55	34.0896
1040.43	31.3449
1043.31	39.2058
1046.19	26.7957
1049.07	32.721
1051.94	28.9534
1054.82	25.1686
1057.69	27.1881
1060.56	24.3355
1063.44	25.3503
1066.31	17.5921
1069.17	14.6927
1072.04	24.4189
1074.91	20.5422
1077.77	19.57
1080.64	23.4432
1083.5	19.5562
1086.37	34.0841
1089.23	34.0834
1092.09	37.9544
1094.95	50.537
1097.8	46.6519
1100.66	53.4145
1103.52	65.9913
1106.37	57.3395
1109.22	51.5597
1112.08	45.822
1114.93	39.1777
1117.78	27.67
1120.63	33.6177
1123.48	25.9216
1126.32	27.9548
1129.17	26.0996
1132.01	26.1933
1134.86	30.2036
1137.7	33.2378
1140.54	29.4164
1143.38	34.4126
1146.22	37.4224
1149.06	40.4434
1151.89	53.2924
1154.73	62.1782
1157.56	57.2494
1160.4	55.2479
1163.23	37.4675
1166.06	24.6285
1168.89	30.4618
1171.72	20.5938
1174.55	20.5363
1177.38	9.71199
1180.2	16.5131
1183.03	18.4287
1185.85	7.67112
1188.67	11.5783
1191.49	11.5833
1194.31	12.5887
1197.13	6.7548
1199.95	6.80205
1202.77	6.87065
1205.58	11.8556
1208.4	9.98163
1211.21	7.11322
1214.02	9.18141
1216.84	9.28627
1219.65	6.41935
1222.46	5.53086
1225.27	7.62879
1228.07	-0.260712
1230.88	5.82952
1233.68	1.89904
1236.49	0.961811
1239.29	4.03867
1242.09	5.09077
1244.89	12.1863
1247.69	8.17098
1250.49	5.14617
1253.29	8.1796
1256.08	2.1029
1258.88	4.09533
1261.67	9.09988
1264.47	9.05426
1267.26	3.97169
1270.05	0.903145
1272.84	4.87334
1275.63	0.793034
1278.42	10.7715
1281.2	30.7554
1283.99	52.7114
1286.77	22.5942
1289.56	7.53338
1292.34	6.49388
1295.12	2.46818
1297.9	8.44415
1300.68	-0.566475
1303.46	2.42889
1306.23	6.44077
1309.01	5.46737
1311.78	5.51509
1314.56	1.55148
1317.33	5.62417
1320.1	2.66169
1322.87	2.72169
1325.64	1.77606
1328.41	5.89574
1331.18	6.98547
1333.94	3.99957
1336.71	7.11393
1339.47	4.1076
1342.24	11.2994
1345	4.17171
1347.76	2.14594
1350.52	2.16415
1353.28	7.30855
1356.04	8.34528
1358.79	3.21113
1361.55	-0.907402
1364.3	13.4637
1367.06	4.18742
1369.81	6.2124
1372.56	10.2888
1375.31	7.17508
1378.06	6.11524
1380.81	10.188
1383.56	33.7614
1386.3	78.8749
1389.05	32.6507
1391.79	8.00023
1394.53	7.98387
1397.28	6.96917
1400.02	4.92308
1402.76	3.90001
1405.5	9.05485
1408.23	14.222
1410.97	8.06071
1413.71	2.92389
1416.44	-0.152809
1419.17	0.900898
1421.91	2.99525
1424.64	6.13551
1427.37	8.24453
1430.1	3.084
1432.83	-0.00984192
1435.55	3.14149
1438.28	7.34391
1441.01	3.1927
1443.73	8.45485
1446.45	5.34324
1449.17	3.26011
1451.89	2.21153
1454.62	5.35353
1457.33	2.18882
1460.05	3.21636
1462.77	3.18785
1465.48	4.20452
1468.2	4.16841
1470.91	3.08315
1473.63	4.09953
1476.34	1.9725
1479.05	1.95153
1481.76	1.93122
1484.47	0.864536
1487.17	6.10736
1489.88	2.9502
1492.59	4.00351
1495.29	7.17236
1497.99	6.13216
1500.7	5.09599
1503.4	8.2854
1506.1	3.02647
1508.8	5.17365
1511.5	0.966293
1514.19	3.124
1516.89	6.35579
1519.59	1.07864
1522.28	3.25442
1524.97	3.30454
1527.67	9.77644
1530.36	3.40114
1533.05	7.75882
1535.74	4.58577
1538.42	3.54308
1541.11	6.81422
1543.8	4.67141
1546.48	-1.82385
1549.16	5.72468
1551.85	7.85008
1554.53	6.71086
1557.21	3.40284
1559.89	7.66515
1562.57	1.13498
1565.25	5.39588
1567.93	5.33881
1570.6	5.28108
1573.28	6.30155
1575.95	9.47964
1578.62	5.13798
1581.29	1.87747
1583.97	1.84923
1586.64	9.36168
1589.3	6.11137
1591.97	5.01992
1594.64	6.08942
1597.3	6.08906
1599.97	10.4083
1602.63	7.18145
1605.3	8.28012
1607.96	6.14458
1610.62	4.01313
1613.28	5.14427
1615.94	4.11124
1618.59	5.25981
1621.25	6.41326
1623.91	6.47539
1626.56	4.34404
1629.21	10.9909
1631.87	0.0528336
1634.52	5.59861
1637.17	2.32054
1639.82	7.83592
1642.47	6.73314
1645.12	6.74158
1647.76	8.95753
1650.41	6.74157
1653.05	7.84378
1655.7	2.28913
1658.34	5.59308
1660.98	8.89447
1663.62	9.9779
1666.26	15.493
1668.9	11.0254
1671.54	2.12046
1674.18	6.52376
1676.81	5.37516
1679.45	6.44843
1682.08	-1.35825
1684.71	6.34586
1687.34	2.96657
1689.98	6.23708
1692.61	5.08574
1695.23	6.15975
1697.86	2.82138
1700.49	6.15473
1703.12	0.695156
1705.74	-1.45786
1708.36	6.41577
1710.99	8.57084
1713.61	7.40006
1716.23	6.29224
1718.85	0.757229
1721.47	7.48785
1724.09	1.88851
1726.7	9.7447
1729.32	9.76768
1731.94	3.05132
1734.55	9.81069
1737.16	4.20226
1739.77	6.46757
1742.39	5.35443
1745	7.62495
1747.61	7.63311
1750.21	4.24367
1752.82	7.6314
1755.43	7.62424
1758.03	4.21095
1760.64	3.05227
1763.24	5.28938
1765.84	6.39761
1768.44	6.37616
1771.05	5.22334
1773.64	8.60528
1776.24	10.8621
1778.84	9.72612
1781.44	4.05333
1784.03	5.19402
1786.63	1.79054
1789.22	8.63865
1791.81	7.5227
1794.41	1.8401
1797	5.2884
1799.59	0.744007
1802.18	4.20838
1804.76	5.38895
1807.35	5.41826
1809.94	5.438
1812.52	5.45578
1815.11	11.2369
1817.69	4.3399
1820.27	12.441
1822.85	4.37369
1825.43	9.02431
1828.01	5.5727
1830.59	7.91833
1833.17	11.4303
1835.74	4.48771
1838.32	9.16317
1840.89	10.3432
1843.47	5.6886
1846.04	8.03029
1848.61	8.03495
1851.18	9.21079
1853.75	5.69049
1856.32	1.00473
1858.89	-0.16692
1861.45	4.53191
1864.02	3.36692
1866.58	3.38253
1869.15	3.39149
1871.71	5.74722
1874.27	4.5635
1876.83	2.19873
1879.39	3.367
1881.95	2.17608
1884.51	6.88452
1887.07	10.4154
1889.63	0.927303
1892.18	2.06993
1894.74	3.21125
1897.29	6.72292
1899.84	6.69817
1902.39	5.51106
1904.94	-1.58977
1907.49	4.34196
1910.04	6.73975
1912.59	6.77975
1915.14	2.06424
1917.68	3.28951
1920.23	10.4282
1922.77	2.06437
1925.32	5.65598
1927.86	9.25427
1930.4	4.47287
1932.94	3.27817
1935.48	5.67778
1938.02	-0.330585
1940.56	10.475
1943.09	5.65489
1945.63	2.02783
1948.16	4.41426
1950.7	0.773209
1953.23	0.738766
1955.76	0.701473
1958.29	4.2769
1960.82	11.4668
1963.35	10.2173
1965.88	11.3754
1968.41	7.70323
1970.93	5.23105
1973.46	3.96227
1975.98	3.89909
1978.51	7.44731
1981.03	2.56771
1983.55	3.70713
1986.07	4.84732
1988.59	4.78635
1991.11	7.13117
1993.63	7.07278
1996.15	8.21915
1998.66	6.96542
2001.18	8.11919
2003.69	10.4799
2006.2	9.24071
2008.72	1.98792
2011.23	10.3813
2013.74	5.53634
2016.25	4.30119
2018.76	7.87643
2021.27	6.63532
2023.77	5.40348
2026.28	6.58928
2028.78	6.57406
2031.29	1.73254
2033.79	6.56476
2036.29	11.4055
2038.79	7.77309
2041.3	0.495823
2043.79	4.13436
2046.29	6.56746
2048.79	6.57346
2051.29	9.01415
2053.78	2.90053
2056.28	2.89288
2058.77	2.89355
2061.27	7.78635
2063.76	11.4655
2066.25	6.57399
2068.74	9.02976
2071.23	7.80383
2073.72	4.11638
2076.21	9.03526
2078.69	11.4967
2081.18	6.55938
2083.66	11.4826
2086.15	13.9362
2088.63	8.96953
2091.11	5.24427
2093.59	8.94997
2096.07	8.95446
2098.55	6.4779
2101.03	5.23985
2103.51	6.49054
2105.99	1.51876
2108.46	6.51627
2110.94	4.03581
2113.41	17.818
2115.89	4.07562
2118.36	16.6465
2120.83	6.62861
2123.3	9.16664
2125.77	9.18832
2128.24	7.94415
2130.71	-2.15716
2133.17	0.369186
2135.64	11.7691
2138.11	5.42897
2140.57	5.42263
2143.03	6.6868
2145.49	-3.50782
2147.96	10.4776
2150.42	9.1778
2152.88	15.5257
2155.34	4.00512
2157.79	2.68417
2160.25	10.3004
2162.71	8.96921
2165.16	1.23883
2167.62	12.6773
2170.07	6.2225
2172.52	4.89063
2174.97	2.2789
2177.43	4.78128
2179.88	5.99195
2182.32	3.35757
2184.77	10.9548
2187.22	8.31701
2189.67	4.40657
2192.11	6.904
2194.56	4.28132
2197	6.79189
2199.44	5.46681
2201.89	6.71254
2204.33	2.82969
2206.77	2.80074
2209.21	7.92361
2211.64	2.75877
2214.08	9.18777
2216.52	9.18378
2218.95	5.3054
2221.39	4.00612
2223.82	-1.18425
2226.26	7.88388
2228.69	5.28283
2231.12	9.17865
2233.55	11.7817
2235.98	5.26226
2238.41	10.4774
2240.84	9.16723
2243.26	5.23771
2245.69	7.85245
2248.12	1.28635
2250.54	2.58628
2252.96	5.20266
2255.39	5.19094
2257.81	6.50312
2260.23	7.81717
2262.65	7.80585
2265.07	10.4331
2267.49	7.75868
2269.9	5.07213
2272.32	-1.60609
2274.74	6.30785
2277.15	12.8987
2279.57	-0.450928
2281.98	14.1059
2284.39	0.729267
2286.8	5.96547
2289.21	7.21397
2291.62	4.46878
2294.03	5.7138
2296.44	5.63322
2298.84	14.8834
2301.25	6.82862
2303.66	5.43898
2306.06	12.0616
2308.46	5.35373
2310.87	2.65066
2313.27	9.3094
2315.67	10.6334
2318.07	9.28582
2320.47	9.27591
2322.87	3.88593
2325.26	5.2196
2327.66	6.55811
2330.06	3.85212
2332.45	5.20096
2334.85	2.49402
2337.24	13.3415
2339.63	5.20842
2342.02	-2.94473
2344.41	2.50531
2346.8	-0.206192
2349.19	2.53457
2351.58	1.17285
2353.97	6.66171
2356.35	10.7792
2358.74	-0.235718
2361.12	-0.281033
2363.51	3.81728
2365.89	-0.354103
2368.27	2.37388
2370.65	6.48849
2373.03	3.68499
2375.41	-3.28391
2377.79	3.60939
2380.17	-8.94064
2382.55	7.66753
2384.92	-2.13317
2387.3	-4.99166
2389.67	0.490009
2392.05	3.18176
2394.42	5.8721
2396.79	1.59295
2399.16	11.2306
2401.53	8.34372
2403.9	1.2724
2406.27	-1.62178
2408.64	-1.71595
2411.01	6.57677
2413.37	5.15056
2415.74	7.96739
2418.1	-3.14311
2420.47	-1.71907
2422.83	5.2697
2425.19	8.01308
2427.55	5.16745
2429.91	0.918674
2432.27	-0.514084
2434.63	3.71014
2436.99	0.874966
2439.34	5.11845
2441.7	3.69326
2444.05	6.52969
2446.41	-4.86575
2448.76	-2.03185
2451.11	9.38145
2453.47	-2.06393
2455.82	6.51292
2458.17	3.63942
2460.51	10.8132
2462.86	2.1815
2465.21	5.04904
2467.56	2.14979
2469.9	0.684235
2472.25	2.10423
2474.59	-2.26437
2476.94	-2.28951
2479.28	2.04098
2481.62	4.92387
2483.96	6.35361
2486.3	4.86259
2488.64	0.45005
2490.98	0.407631
2493.32	0.364815
2495.65	3.25384
2497.99	6.14387
2500.32	3.17132
2502.66	4.59341
2504.99	4.54585
2507.32	-4.32614
2509.66	7.38065
2511.99	-7.40018
2514.32	-3.05302
2516.65	-3.12359
2518.98	4.18874
2521.3	14.4717
2523.63	5.56259
2525.96	5.50669
2528.28	2.49316
2530.61	2.43658
2532.93	5.35197
2535.25	2.34347
2537.57	-3.63751
2539.89	2.26379
2542.22	-3.7256
2544.53	2.19014
2546.85	-2.31289
2549.17	2.12897
2551.49	6.58144
2553.8	6.55389
2556.12	-3.96684
2558.43	-8.51542
2560.75	3.44315
2563.06	-10.1053
2565.37	-2.62155
2567.68	4.88211
2569.99	-1.15993
2572.3	0.331764
2574.61	1.82434
2576.92	0.288208
2579.23	0.256218
2581.53	-1.30036
2583.84	-10.4647
2586.14	-1.42081
2588.45	0.0291061
2590.75	-1.58022
2593.05	1.38859
2595.35	7.41631
2597.66	-7.85523
2599.96	2.7543
2602.26	13.3728
2604.55	2.63497
2606.85	-5.06433
2609.15	-3.60516
2611.44	5.48463
2613.74	5.40839
2616.03	0.743744
2618.33	0.672691
2620.62	2.12897
2622.91	0.526619
2625.2	9.6563
2627.49	0.398613
2629.78	6.49164
2632.07	-8.89381
2634.36	0.304634
2636.64	3.38226
2638.93	-2.76962
2641.22	-1.21933
2643.5	1.88755
2645.78	-1.18913
2648.07	11.2408
2650.35	-5.83563
2652.63	9.74282
2654.91	1.9397
2657.19	0.347099
2659.47	3.43304
2661.75	-2.85998
2664.03	1.77969
2666.3	0.158234
2668.58	0.119881
2670.85	-7.75157
2673.13	0.0768814
2675.4	4.80853
2677.67	4.87843
2679.95	-4.48802
2682.22	8.24468
2684.49	0.40181
2686.76	-1.11354
2689.03	-1.04564
2691.29	-5.78868
2693.56	-5.75429
2695.83	0.605461
2698.09	0.584366
2700.36	2.18023
2702.62	-2.65115
2704.89	0.540825
2707.15	-1.08957
2709.41	-7.55948
2711.67	-9.20614
2713.93	-2.7823
2716.19	3.67755
2718.45	11.7494
2720.7	-2.82407
2722.96	-7.70911
2725.22	-6.12915
2727.47	0.316887
2729.73	1.89401
2731.98	-1.41377
2734.23	-1.46757
2736.49	0.0969849
2738.74	0.0325851
2740.99	9.74647
2743.24	4.82973
2745.49	3.17197
2747.73	-3.36916
2749.98	-3.38194
2752.23	4.82551
2754.47	1.58024
2756.72	6.49377
2758.96	-0.0747223
2761.21	-0.105087
2763.45	6.44669
2765.69	-3.41336
2767.93	-3.41642
2770.17	1.50774
2772.41	1.50824
2774.65	1.52158
2776.89	-13.3235
2779.13	-5.0382
2781.36	-1.67632
2783.6	-4.94539
2785.84	5.08289
2788.07	-1.51653
2790.3	-1.46632
2792.54	8.60829
2794.77	-1.37526
2797	3.68385
2799.23	-4.67117
2801.46	3.74837
2803.69	5.45163
2805.92	-1.26733
2808.14	-2.94678
2810.37	5.49063
2812.59	-8.01197
2814.82	-2.95786
2817.04	-1.27885
2819.27	-9.7486
2821.49	5.48412
2823.71	-6.37682
2825.93	0.406998
2828.15	7.19909
2830.37	-1.29481
2832.59	-1.30064
2834.81	-3.01157
2837.03	0.38623
2839.24	5.49464
2841.46	5.49577
2843.67	-3.03324
2845.89	-9.85747
2848.1	-6.43345
2850.31	-4.7081
2852.53	-2.96749
2854.74	3.93346
2856.95	-2.8867
2859.16	-6.28648
2861.37	0.646736
2863.57	0.711021
2865.78	-6.12382
2867.99	0.861275
2870.19	-0.796753
2872.4	2.74478
2874.6	4.562
2876.81	-0.575012
2879.01	-0.492058
2881.21	-0.402817
2883.41	-2.05731
2885.61	-7.21877
2887.81	5.15685
2890.01	3.49916
2892.21	0.0714798
2894.41	-6.89793
2896.6	7.34069
2898.8	12.7802
2901	2.2613
2903.19	5.90955
2905.38	11.3431
2907.58	2.52767
2909.77	0.824547
2911.96	0.883453
2914.15	6.30635
2916.34	-13.3432
2918.53	-0.742126
2920.72	2.91428
2922.91	2.98497
2925.09	3.06615
2927.28	10.3681
2929.47	-0.365059
2931.65	-5.70047
2933.83	-0.198837
2936.02	7.11886
2938.2	-0.0801697
2940.38	-0.0346527
2942.56	3.65108
2944.74	5.51752
2946.92	0.0859604
2949.1	-5.35104
2951.28	1.97507
2953.46	2.01055
2955.63	-3.43372
2957.81	0.251778
2959.98	-1.54144
2962.16	-6.99372
2964.33	-5.12479
2966.5	4.08746
2968.68	11.4848
2970.85	0.531425
2973.02	-6.76312
2975.19	8.01152
2977.36	6.23715
2979.52	6.30363
2981.69	-1.00246
2983.86	-0.922356
2986.03	-0.835693
2988.19	4.81487
2990.36	8.63055
2992.52	6.89162
2994.68	-4.1562
2996.85	8.99007
2999.01	-9.53515
3001.17	1.78584
3003.33	-3.69688
3005.49	0.181107
3007.65	9.70512
3009.8	-5.1997
3011.96	6.21368
3014.12	6.35597
3016.27	-8.616
3018.43	8.56213
3020.58	10.6234
3022.74	6.97971
3024.89	-8.11123
3027.04	-0.383446
3029.19	5.44981
3031.34	-2.08549
3033.49	7.57042
3035.64	7.66003
3037.79	13.4863
3039.94	11.6806
3042.09	11.7827
3044.23	8.02931
3046.38	13.8873
3048.52	6.27279
3050.67	0.572105
3052.81	12.2245
3054.95	6.5263
3057.09	-14.6422
3059.24	10.5754
3061.38	0.986427
3063.51	8.82171
3065.65	3.09543
3067.79	3.18229
3069.93	3.26984
3072.07	5.30294
3074.2	11.2362
3076.34	3.545
3078.47	15.3415
3080.61	9.59251
3082.74	13.6015
3084.87	11.7686
3087	9.93766
3089.14	12.038
3091.27	8.26493
3093.39	10.3889
3095.52	18.44
3097.65	8.762
3099.78	18.8118
3101.91	13.0667
3104.03	21.1918
3106.16	15.448
3108.28	15.6571
3110.41	15.874
3112.53	8.10314
3114.65	8.30343
3116.77	14.5266
3118.89	26.8042
3121.01	19.003
3123.13	19.2474
3125.25	13.4301
3127.37	19.759
3129.49	11.8997
3131.61	24.3865
3133.72	12.4241
3135.84	12.6844
3137.95	33.4612
3140.06	23.4711
3142.18	19.6107
3144.29	32.2476
3146.4	26.3001
3148.51	5.81039
3150.62	20.5436
3152.73	24.8998
3154.84	18.8463
3156.95	21.117
3159.06	23.3943
3161.16	23.5876
3163.27	19.5905
3165.37	30.2641
3167.48	34.6529
3169.58	26.418
3171.69	13.9736
3173.79	26.7994
3175.89	33.2889
3177.99	31.318
3180.09	39.913
3182.19	35.8055
3184.29	27.4482
3186.39	33.9183
3188.49	21.2787
3190.58	21.3907
3192.68	30.0153
3194.77	38.6603
3196.87	28.1927
3198.96	24.1269
3201.06	37.1757
3203.15	18.1749
3205.24	37.6877
3207.33	20.7921
3209.42	25.3441
3211.51	19.1378
3213.6	38.8387
3215.69	26.1571
3217.78	30.771
3219.86	33.2145
3221.95	44.3828
3224.04	38.1302
3226.12	36.2325
3228.2	25.5542
3230.29	38.9811
3232.37	37.0654
3234.45	37.3213
3236.53	46.407
3238.61	31.2078
3240.7	18.1824
3242.77	25.096
3244.85	34.2915
3246.93	30.1003
3249.01	21.421
3251.08	28.3361
3253.16	24.0578
3255.23	33.2052
3257.31	31.1374
3259.38	26.8643
3261.46	29.3447
3263.53	22.8164
3265.6	41.1748
3267.67	32.5201
3269.74	35.024
3271.81	28.5228
3273.88	19.6225
3275.95	38.0433
3278.02	33.6443
3280.08	31.5213
3282.15	22.5195
3284.21	38.7311
3286.28	27.4206
3288.34	27.5767
3290.41	27.7297
3292.47	27.8777
3294.53	25.7179
3296.59	30.4724
3298.65	35.2407
3300.71	33.1093
3302.77	33.2676
3304.83	19.5341
3306.89	24.3185
3308.95	29.1076
3311	22.2872
3313.06	31.7182
3315.11	36.5275
3317.17	34.3514
3319.22	32.186
3321.27	30.0207
3323.33	41.8864
3325.38	28.0479
3327.43	28.2408
3329.48	37.8131
3331.53	26.312
3333.58	35.9684
3335.63	45.6496
3337.67	41.1936
3339.72	27.2145
3341.77	29.7566
3343.81	29.9163
3345.86	37.1935
3347.9	32.5782
3349.95	35.1061
3351.99	54.2866
3354.03	40.1578
3356.07	35.5669
3358.11	28.5818
3360.15	35.913
3362.19	43.267
3364.23	43.4427
3366.27	43.6132
3368.31	29.3891
3370.34	41.56
3372.38	51.3366
3374.42	32.2401
3376.45	25.1424
3378.48	46.9497
3380.52	25.3728
3382.55	32.7234
3384.58	42.4954
3386.61	47.4433
3388.64	35.4676
3390.68	35.5671
3392.7	33.246
3394.73	43.0432
3396.76	31.0518
3398.79	45.7252
3400.82	45.845
3402.84	41.0874
3404.87	48.4669
3406.89	41.2737
3408.92	48.6622
3410.94	56.0412
3412.96	34.2251
3414.98	31.8683
3417	44.1256
3419.03	44.2062
3421.05	49.1572
3423.06	46.7927
3425.08	56.6259
3427.1	46.9593
3429.12	37.291
3431.14	39.834
3433.15	35.0518
3435.17	37.6107
3437.18	40.1812
3439.2	42.763
3441.21	47.8031
3443.22	47.9507
3445.23	43.2007
3447.25	50.7625
3449.26	41.0882
3451.27	48.6603
3453.28	34.0303
3455.28	39.1671
3457.29	46.8164
3459.3	37.1172
3461.31	37.3357
3463.31	52.5054
3465.32	45.2632
3467.32	42.9952
3469.33	40.7095
3471.33	40.9187
3473.33	31.0248
3475.34	28.6816
3477.34	43.9718
3479.34	41.6441
3481.34	36.7786
3483.34	47.0777
3485.34	49.7995
3487.33	39.8347
3489.33	29.8375
3491.33	42.7143
3493.32	22.4931
3495.32	35.3736
3497.32	27.8439
3499.31	40.7436
3501.3	43.4228
3503.3	40.9662
3505.29	51.3224
3507.28	38.5845
3509.27	41.2076
3511.26	30.9797
3513.25	46.4246
3515.24	38.755
3517.23	36.2169
3519.22	25.9648
3521.2	38.8462
3523.19	38.876
3525.18	33.7674
3527.16	44.1023
3529.15	15.8003
3531.13	28.7175
3533.11	26.2135
3535.1	31.4605
3537.08	26.4021
3539.06	31.6898
3541.04	21.4357
3543.02	21.5149
3545	21.585
3546.98	26.8402
3548.96	29.4954
3550.93	21.7395
3552.91	32.1255
3554.89	26.9413
3556.86	29.5733
3558.84	27.0103
3560.81	32.2644
3562.78	40.1405
3564.76	37.6027
3566.73	37.6855
3568.7	35.1832
3570.67	30.0364
3572.64	19.6404
3574.61	32.8319
3576.58	32.9358
3578.55	33.0514
3580.52	17.3788
3582.48	28.0332
3584.45	25.5168
3586.41	22.9906
3588.38	20.4539
3590.35	15.2556
3592.31	31.2898
3594.27	28.7491
3596.23	26.201
3598.2	44.9791
3600.16	26.3971
3602.12	37.1857
3604.08	31.9314
3606.04	26.654
3608	13.3056
3609.95	10.6671
3611.91	21.4676
3613.87	32.2991
3615.83	24.2711
3617.78	21.6255
3619.74	13.5619
3621.69	16.2693
3623.64	13.554
3625.6	21.6425
3627.55	10.8074
3629.5	16.1895
3631.45	21.5606
3633.4	10.7037
3635.35	7.9702
3637.3	26.9088
3639.25	16.08
3641.2	21.5263
3643.15	10.706
3645.09	10.7349
3647.04	18.9447
3648.98	21.6296
3650.93	10.7275
3652.87	21.6135
3654.82	5.24601
3656.76	2.49511
3658.7	7.92243
3660.64	10.6233
3662.58	5.12917
3664.53	21.4839
3666.47	13.2714
3668.4	10.5203
3670.34	24.1712
3672.28	13.207
3674.22	13.2012
3676.16	10.4645
3678.09	7.7331
3680.03	5.00451
3681.96	2.27953
3683.9	-0.443039
3685.83	7.86181
3687.76	7.91029
3689.69	10.7235
3691.63	16.315
3693.56	-0.262207
3695.49	8.08196
3697.42	8.12633
3699.35	8.16807
3701.28	5.42702
3703.2	11.0317
3705.13	5.49325
3707.06	5.53647
3708.98	11.1805
3710.91	5.61726
3712.83	8.46486
3714.76	14.1194
3716.68	16.9632
3718.6	11.3513
3720.53	5.72345
3722.45	8.55222
3724.37	-2.75259
3726.29	11.3793
3728.21	5.71677
3730.13	0.0448532
3732.05	-2.79331
3733.97	5.71988
3735.88	8.56529
3737.8	14.2574
3739.72	8.56661
3741.63	14.259
3743.55	-5.70664
3745.46	11.3963
3747.38	14.2389
3749.29	5.64719
3751.2	5.61667
3753.11	2.71934
3755.02	2.67563
3756.93	-0.237267
3758.84	-0.292046
3760.75	-3.21516
3762.66	8.18745
3764.57	10.9946
3766.48	5.20544
3768.39	5.15729
3770.29	-6.35893
3772.2	5.07899
3774.1	5.04185
3776.01	7.87729
3777.91	4.97516
3779.81	2.07822
3781.72	13.5737
3783.62	-0.82235
3785.52	16.4637
3787.42	7.81367
3789.32	-0.854027
3791.22	-3.75532
3793.12	4.91048
3795.02	4.92332
3796.92	16.5277
3798.81	4.96709
3800.71	4.99436
3802.61	7.92975
3804.5	-3.66338
3806.4	5.10256
3808.29	5.14568
3810.18	5.18512
3812.08	5.21951
3813.97	8.17745
3815.86	2.35961
3817.75	-6.39792
3819.64	-9.30837
3821.53	-0.484314
3823.42	-3.39942
3825.31	8.37412
3827.2	-9.25335
3829.09	2.54636
3830.97	-15.1015
3832.86	2.62772
3834.75	-9.14547
3836.63	-3.20657
3838.52	-3.17679
3840.4	5.73448
3842.28	11.7425
3844.17	5.84727
3846.05	8.83532
3847.93	2.90041
3849.81	5.87714
3851.69	-5.99574
3853.57	8.8585
3855.45	-0.0504227
3857.33	-8.9744
3859.21	-0.0707932
3861.08	5.87504
3862.96	8.86216
3864.84	-2.98104
3866.71	0.0809555
3868.59	3.17605
3870.46	3.27166
3872.34	0.316551
3874.21	0.348175
3876.08	-2.60005
3877.95	9.39692
3879.82	6.4556
3881.69	3.51785
3883.56	-2.407
3885.44	-8.32931
3887.3	-2.27072
3889.17	-17.1754
3891.04	3.88913
3892.91	-5.00678
3894.77	-4.88265
3896.64	1.2454
3898.51	4.37163
3900.37	-4.53235
3902.23	-1.39645
3904.1	-10.3192
3905.96	-1.14375
3907.82	-1.01653
3909.69	-6.92181
3911.55	-0.7257
3913.41	2.45643
3915.27	5.65419
3917.13	-9.32254
3918.99	-0.0354309
3920.84	9.28812
3922.7	0.382088
3924.56	0.592972
3926.42	6.904
3928.27	-2.03728
3930.13	10.3987
3931.98	-4.67854
3933.84	1.64131
3935.69	-1.21684
3937.54	11.2514
3939.4	5.34625
3941.25	8.65858
3943.1	-15.6741
3944.95	6.10401
3946.8	6.3644
3948.65	0.460884
3950.5	0.71389
3952.35	-2.12
3954.19	10.4929
3956.04	1.4841
3957.89	4.83704
3959.73	8.1872
3961.58	11.544
3963.42	2.52071
3965.27	-12.7055
3967.11	-0.0495453
3968.96	9.50961
3970.8	25.2792
3972.64	-2.33652
3974.48	13.4555
3976.32	23.0556
3978.16	-1.45616
3980	11.2481
3981.84	11.5468
3983.68	11.8546
3985.52	15.2749
3987.36	12.4971
3989.19	3.53003
3991.03	6.98474
3992.86	7.35505
3994.7	4.63664
3996.53	-1.17025
3998.37	11.6659
