#Acq. time (s)=	30
#Accumulations=	2
#Range (cm-¹)=	1200...2365
#Windows=	3
#Auto scanning=	Off
#Autofocus=	Off
#Macrospot=	Off
#AutoExposure=	Off
#Spike filter=	Multiple accum.
#Delay time (s)=	2
#Binning=	1
#Readout mode=	Signal
#DeNoise=	Off
#ICS correction=	On
#Dark correction=	Off
#Inst. Process=	Off
#Detector Gain=	Best Dynamic
#Detector ADC=	50 kHz HS
#Detector temperature (°C)=	-60.09
#Instrument=	LabRAM HR Evol
#Detector=	SIN-EM FIVIS
#Objective=	x100_VIS_LWD
#Grating=	1800 (450-850nm)
#ND Filter=	100%
#Laser=	532nm_Edge
#Hole=	49.98
#Temperature=	0
#Range=	Visible
#StageXY=	75x50mm Scan+
#StageZ=	Z motor
#X (µm)=	0
#Y (µm)=	0
#Z (µm)=	-9.4
#Full time(mm:ss)=	3:15
#Project=	21_11_26
#Sample=	BU19(2)w
#Site=	
#Title=	BU19(2)w-A-FF1-FI02-V_1800 (450-850nm)_532nm_Edge_100%_x100_VIS_LWD_H50um_30sX2
#Remark=	
#Date=	26.11.2021 11:57
#Acquired=	26.11.2021 11:57:19
#Base:Fit=	16.12.2021 16:00:56
#Base:Fit=	16.12.2021 16:04:55
#Base:Sub=	16.12.2021 16:04:56
1202.72	-0.560791
1203	10.0147
1203.28	8.96729
1203.56	-21.8741
1203.84	7.44757
1204.11	-8.21008
1204.39	22.4373
1204.67	-4.62695
1204.95	0.612
1205.23	16.3599
1205.5	22.2792
1205.78	9.9126
1206.06	23.2794
1206.34	5.50452
1206.61	-9.02686
1206.89	6.47083
1207.17	2.66364
1207.45	6.42456
1207.73	0.649597
1208	4.5238
1208.28	-3.31641
1208.56	-32.5901
1208.84	-2.00635
1209.11	-2.43707
1209.39	16.3896
1209.67	-14.9313
1209.95	-1.28107
1210.23	20.8808
1210.5	9.81335
1210.78	-5.68835
1211.06	32.2335
1211.34	-0.271301
1211.61	-17.8577
1211.89	-4.42987
1212.17	12.1086
1212.45	1.99646
1212.72	6.89923
1213	17.1119
1213.28	0.683228
1213.56	16.2883
1213.83	6.39203
1214.11	18.7885
1214.39	6.90161
1214.67	12.0424
1214.94	-13.71
1215.22	-11.7975
1215.5	-9.90869
1215.78	13.2629
1216.05	16.1821
1216.33	-2.32288
1216.61	-21.9573
1216.89	13.6611
1217.16	-16.6257
1217.44	5.24719
1217.72	-11.1223
1218	-1.99359
1218.27	-11.9372
1218.55	-8.06909
1218.83	-20.1118
1219.1	-17.2234
1219.38	0.556702
1219.66	-7.14899
1219.94	-2.14624
1220.21	-0.367126
1220.49	17.4348
1220.77	-8.22137
1221.04	15.926
1221.32	11.4006
1221.6	-13.3308
1221.88	10.7112
1222.15	11.3383
1222.43	6.58899
1222.71	-15.1522
1222.98	23.4213
1223.26	0.621216
1223.54	11.6948
1223.81	-0.463013
1224.09	-13.6163
1224.37	4.92371
1224.65	-3.91852
1224.92	18.9591
1225.2	12.3185
1225.48	-1.62512
1225.76	1.44098
1226.03	-17.6777
1226.31	-6.15961
1226.59	-22.2391
1226.86	7.07159
1227.14	1.44684
1227.42	24.3348
1227.69	5.78644
1227.97	-12.0342
1228.25	9.41901
1228.52	-2.80927
1228.8	-6.90582
1229.08	-6.64655
1229.35	9.90845
1229.63	1.15912
1229.91	-2.6297
1230.18	3.81696
1230.46	-3.44855
1230.74	0.291931
1231.01	0.186096
1231.29	6.89728
1231.57	1.98578
1231.84	-3.31531
1232.12	5.93542
1232.4	-36.3146
1232.67	28.545
1232.95	-34.7036
1233.23	-24.4313
1233.5	13.121
1233.78	-15.4518
1234.06	18.0173
1234.33	-4.16125
1234.61	20.9456
1234.89	-7.49725
1235.16	4.00568
1235.44	3.88208
1235.71	4.81909
1235.99	15.2427
1236.27	3.55597
1236.54	6.50922
1236.82	-10.598
1237.1	-6.70404
1237.37	10.8019
1237.65	9.29315
1237.93	4.61786
1238.2	-13.6997
1238.48	11.0176
1238.76	-4.14453
1239.03	1.7442
1239.31	11.9061
1239.58	1.12646
1239.86	1.90717
1240.14	-3.57074
1240.41	4.60449
1240.69	-2.92035
1240.97	-19.8536
1241.24	-5.32037
1241.52	-4.42499
1241.79	-7.82434
1242.07	11.762
1242.35	6.24731
1242.62	6.07971
1242.9	-6.6286
1243.18	4.83105
1243.45	4.75659
1243.73	21.3364
1244	8.5838
1244.28	14.7465
1244.56	-7.45917
1244.83	3.83948
1245.11	-6.90155
1245.39	-10.3971
1245.66	-14.9666
1245.94	2.38641
1246.21	11.3622
1246.49	14.2083
1246.76	-3.82983
1247.04	1.22913
1247.32	3.12781
1247.59	0.788086
1247.87	7.92059
1248.14	32.7706
1248.42	27.0525
1248.7	-1.52557
1248.97	12.8997
1249.25	19.0478
1249.52	8.47278
1249.8	10.3333
1250.08	15.3591
1250.35	6.82495
1250.63	2.29608
1250.9	-22.1321
1251.18	1.55646
1251.45	-22.8123
1251.73	-1.18414
1252.01	23.5719
1252.28	15.9348
1252.56	11.4328
1252.83	31.9861
1253.11	-2.81104
1253.39	16.6899
1253.66	27.9136
1253.94	19.3959
1254.21	7.8739
1254.49	22.4684
1254.76	7.85736
1255.04	11.9314
1255.31	12.8027
1255.59	-6.10254
1255.87	19.8311
1256.14	3.9552
1256.42	12.1748
1256.69	6.84613
1256.97	1.57086
1257.24	-1.69507
1257.52	15.8484
1257.79	48.9787
1258.07	19.4922
1258.35	48.495
1258.62	22.1503
1258.9	49.0301
1259.17	51.7888
1259.45	30.7234
1259.72	21.2568
1260	21.2096
1260.27	46.4485
1260.55	29.3525
1260.82	39.4203
1261.1	24.3356
1261.37	27.0929
1261.65	52.8658
1261.92	73.6833
1262.2	60.7278
1262.48	71.1104
1262.75	69.4052
1263.02	94.9537
1263.3	70.7451
1263.58	67.0453
1263.85	93.8325
1264.13	66.1563
1264.4	77.2714
1264.68	57.6758
1264.95	40.2377
1265.23	57.6291
1265.5	63.7322
1265.78	46.7701
1266.05	46.4487
1266.33	29.5604
1266.6	23.186
1266.88	49.2609
1267.15	40.8951
1267.43	48.2473
1267.7	7.52814
1267.98	38.9864
1268.25	50.6133
1268.53	27.8024
1268.8	39.465
1269.08	23.7566
1269.35	43.6357
1269.63	22.6246
1269.9	27.6497
1270.18	44.062
1270.45	31.0704
1270.73	47.4788
1271	-12.5539
1271.28	40.5185
1271.55	39.2524
1271.83	34.7919
1272.1	27.3697
1272.38	33.6837
1272.65	44.233
1272.93	16.1237
1273.2	14.084
1273.47	22.5258
1273.75	17.3497
1274.03	27.8935
1274.3	39.494
1274.57	22.6932
1274.85	48.7968
1275.12	41.2601
1275.4	39.0062
1275.67	30.5501
1275.95	47.3175
1276.22	42.064
1276.5	13.7728
1276.77	38.9623
1277.05	25.3196
1277.32	44.1841
1277.6	24.2805
1277.87	22.2275
1278.14	54.8508
1278.42	41.2032
1278.69	60.1321
1278.97	52.8653
1279.24	81.2506
1279.52	75.9819
1279.79	79.9836
1280.07	79.7554
1280.34	99.4749
1280.61	136.094
1280.89	183.344
1281.16	195.907
1281.44	258.084
1281.71	364.567
1281.99	487.732
1282.26	661.228
1282.53	931.759
1282.81	1200.28
1283.08	1408.21
1283.36	1463.78
1283.63	1409.06
1283.91	1271.49
1284.18	948.688
1284.45	744.46
1284.73	515.772
1285	374.661
1285.28	233.29
1285.55	181.017
1285.83	152.093
1286.1	105.634
1286.37	135.172
1286.65	96.0476
1286.92	96.7781
1287.2	49.235
1287.47	74.298
1287.75	45.5939
1288.02	61.0766
1288.29	57.6747
1288.57	50.1483
1288.84	59.4946
1289.12	43.6211
1289.39	46.7601
1289.66	38.3443
1289.94	37.3022
1290.21	32.0671
1290.49	28.9071
1290.76	12.9534
1291.03	52.7393
1291.31	28.3174
1291.58	11.3051
1291.86	39.5848
1292.13	6.75665
1292.4	22.4141
1292.68	33.9081
1292.95	27.3919
1293.22	11.3817
1293.5	15.4905
1293.77	19.8334
1294.05	36.9001
1294.32	18.1433
1294.59	17.0415
1294.87	28.4987
1295.14	29.3475
1295.42	14.5922
1295.69	0.0316162
1295.96	46.79
1296.24	37.7634
1296.51	16.8419
1296.79	43.2111
1297.06	20.8935
1297.33	18.5444
1297.61	28.8209
1297.88	26.3904
1298.15	18.658
1298.43	8.78778
1298.7	26.6976
1298.97	14.8708
1299.25	-16.0323
1299.52	-4.67218
1299.79	19.3314
1300.07	-13.5424
1300.34	14.9651
1300.62	21.2453
1300.89	-2.10126
1301.16	29.3939
1301.44	2.82611
1301.71	20.6761
1301.98	-3.60895
1302.25	38.6289
1302.53	14.2683
1302.8	-12.2548
1303.08	24.5652
1303.35	6.41425
1303.62	-2.26593
1303.9	11.1725
1304.17	39.5135
1304.44	38.338
1304.72	14.9711
1304.99	-8.40875
1305.26	-7.59265
1305.54	19.5707
1305.81	20.2943
1306.08	17.8555
1306.35	12.2361
1306.63	-8.10815
1306.9	-5.15436
1307.18	29.5075
1307.45	11.5177
1307.72	-4.41461
1308	-4.56311
1308.27	-3.65057
1308.54	12.0795
1308.81	26.6594
1309.09	8.63989
1309.36	-1.91266
1309.63	8.62128
1309.91	13.8854
1310.18	-8.33264
1310.45	24.2264
1310.73	1.87671
1311	-2.47845
1311.27	-3.63177
1311.55	-7.94305
1311.82	-13.3157
1312.09	1.39569
1312.37	16.1862
1312.64	6.6756
1312.91	-9.23773
1313.18	-30.5248
1313.46	-7.55878
1313.73	6.00403
1314	18.4621
1314.28	-14.4532
1314.55	10.7463
1314.82	11.72
1315.09	1.11639
1315.37	-6.30048
1315.64	1.05896
1315.91	-14.8026
1316.18	46.4365
1316.46	12.4705
1316.73	-1.44403
1317	-2.66571
1317.28	5.62982
1317.55	-8.23029
1317.82	0.209167
1318.09	22.3447
1318.37	28.6086
1318.64	-6.34741
1318.91	-13.8519
1319.18	18.7735
1319.46	-2.50903
1319.73	11.0624
1320	21.4673
1320.28	10.8326
1320.55	-0.905273
1320.82	11.5982
1321.09	-19.2832
1321.37	-13.2585
1321.64	14.885
1321.91	10.2667
1322.18	9.98608
1322.46	-3.03955
1322.73	-7.49835
1323	29.1716
1323.27	8.8811
1323.55	7.53711
1323.82	-25.1763
1324.09	1.09564
1324.36	-17.9961
1324.64	-8.65625
1324.91	-6.65875
1325.18	10.0635
1325.45	-15.3148
1325.73	-6.16284
1326	-20.3619
1326.27	9.58337
1326.54	-20.614
1326.81	-2.04028
1327.09	-5.38348
1327.36	-16.8034
1327.63	17.3169
1327.9	-4.6239
1328.18	-5.50513
1328.45	15.7817
1328.72	-26.19
1328.99	26.6958
1329.27	2.38977
1329.54	14.8228
1329.81	0.0218506
1330.08	13.5798
1330.35	-10.8752
1330.63	9.99194
1330.9	17.0971
1331.17	-6.42389
1331.44	-32.0914
1331.71	4.35016
1331.99	-11.9384
1332.26	1.341
1332.53	18.8787
1332.8	-10.9644
1333.07	0.199829
1333.35	11.3453
1333.62	-16.3831
1333.89	24.2288
1334.16	15.4574
1334.43	8.79877
1334.71	-14.6448
1334.98	10.2281
1335.25	1.53485
1335.52	13.8449
1335.79	0.976257
1336.07	23.7867
1336.34	-12.1337
1336.61	23.2773
1336.88	-26.2341
1337.15	15.488
1337.43	-16.157
1337.7	8.81238
1337.97	-19.6946
1338.24	-3.25098
1338.51	4.81909
1338.78	4.57941
1339.06	1.18109
1339.33	-0.0728149
1339.6	28.0585
1339.87	-6.57788
1340.14	-4.55084
1340.42	2.6828
1340.69	-0.540161
1340.96	-32.0443
1341.23	28.5671
1341.5	-4.04913
1341.77	6.24921
1342.04	14.4174
1342.32	0.557068
1342.59	-8.11237
1342.86	-7.40143
1343.13	4.8194
1343.4	18.1862
1343.67	-6.04651
1343.95	-4.09467
1344.22	-3.1676
1344.49	7.19556
1344.76	-7.55725
1345.03	8.9873
1345.3	-36.2246
1345.58	9.47693
1345.85	17.4554
1346.12	5.63403
1346.39	-1.03296
1346.66	-0.521484
1346.93	-10.2953
1347.2	0.81897
1347.47	-15.1998
1347.75	9.48285
1348.02	1.91882
1348.29	-5.59515
1348.56	10.8984
1348.83	11.7695
1349.1	-14.5239
1349.37	21.6754
1349.65	22.4384
1349.92	-1.78223
1350.19	11.493
1350.46	12.2744
1350.73	-2.56335
1351	5.44702
1351.27	2.00226
1351.54	-13.8466
1351.81	-21.4474
1352.09	10.6183
1352.36	-0.940186
1352.63	-27.9854
1352.9	8.49365
1353.17	20.0972
1353.44	10.7652
1353.71	25.9751
1353.98	4.79651
1354.25	19.5083
1354.53	23.2963
1354.8	-14.0686
1355.07	-6.80566
1355.34	28.4915
1355.61	51.9707
1355.88	16.3908
1356.15	8.27167
1356.42	7.198
1356.69	14.1819
1356.96	24.3807
1357.24	28.3568
1357.51	-0.910522
1357.78	9.26001
1358.05	15.2529
1358.32	5.65912
1358.59	8.51544
1358.86	2.04205
1359.13	-22.0952
1359.4	21.2083
1359.67	-4.94611
1359.94	-6.19238
1360.22	13.1856
1360.49	16.9739
1360.76	-0.983948
1361.03	8.07935
1361.3	46.2372
1361.57	28.5146
1361.84	-9.94305
1362.11	28.2321
1362.38	17.6718
1362.65	20.5872
1362.92	21.4382
1363.19	-0.433167
1363.46	14.0188
1363.73	23.3915
1364	42.048
1364.28	16.1656
1364.55	26.4174
1364.82	26.2616
1365.09	67.4985
1365.36	34.1001
1365.63	43.123
1365.9	24.1819
1366.17	26.9904
1366.44	7.03894
1366.71	4.67163
1366.98	2.2583
1367.25	30.8089
1367.52	32.6421
1367.79	13.8582
1368.06	32.4823
1368.33	33.4902
1368.6	32.4165
1368.87	25.1409
1369.15	51.9793
1369.41	85.0474
1369.68	109.835
1369.95	66.202
1370.23	46.3621
1370.5	33.7615
1370.77	15.869
1371.04	23.9285
1371.31	23.6734
1371.58	48.1213
1371.85	27.079
1372.12	34.8924
1372.39	34.4587
1372.66	19.6169
1372.93	39.9133
1373.2	34.5143
1373.47	15.7516
1373.74	18.6433
1374.01	37.0099
1374.28	25.5091
1374.55	43.9014
1374.82	24.1771
1375.09	36.38
1375.36	42.3571
1375.63	51.5751
1375.9	37.1769
1376.17	22.6432
1376.44	34.9675
1376.71	32.5894
1376.98	34.3412
1377.25	29.8383
1377.52	55.1046
1377.79	43.8114
1378.06	61.4544
1378.33	46.2863
1378.6	48.7084
1378.87	59.4319
1379.14	49.1891
1379.41	32.5726
1379.68	51.954
1379.95	51.7366
1380.22	58.6741
1380.49	74.6732
1380.76	55.3049
1381.03	50.6803
1381.3	63.6218
1381.57	68.8327
1381.84	43.827
1382.11	88.5435
1382.38	100.312
1382.65	88.5278
1382.92	97.3361
1383.19	89.7003
1383.46	114.993
1383.73	139.236
1384	119.493
1384.27	150.026
1384.54	165.355
1384.81	224.831
1385.08	254.686
1385.34	289.788
1385.61	402.013
1385.88	553.16
1386.15	728.957
1386.42	1058.7
1386.69	1661.9
1386.96	2487.89
1387.23	3272.5
1387.5	3323.53
1387.77	2595.27
1388.04	1695.56
1388.31	1064.42
1388.58	639.916
1388.85	450.527
1389.12	337.129
1389.39	240.266
1389.66	208.444
1389.93	164.334
1390.2	151.588
1390.46	121.995
1390.73	125.656
1391	92.7297
1391.27	86.11
1391.54	101.322
1391.81	87.8323
1392.08	92.6584
1392.35	54.4337
1392.62	76.679
1392.89	84.6319
1393.16	68.0428
1393.43	53.5275
1393.7	48.2388
1393.97	84.921
1394.23	52.0188
1394.5	59.0399
1394.77	45.6032
1395.04	42.4209
1395.31	28.1155
1395.58	11.8129
1395.85	36.4081
1396.12	56.8481
1396.39	43.436
1396.66	43.2841
1396.93	56.4046
1397.2	67.4667
1397.46	40.6153
1397.73	57.7615
1398	31.0049
1398.27	59.5596
1398.54	40.1126
1398.81	30.9382
1399.08	48.3198
1399.35	37.0393
1399.62	23.8159
1399.89	53.5192
1400.16	47.3926
1400.42	50.3809
1400.69	18.7032
1400.96	54.6908
1401.23	38.3425
1401.5	33.1161
1401.77	30.0793
1402.04	66.8691
1402.31	56.8688
1402.58	19.3933
1402.84	67.0472
1403.11	33.5267
1403.38	11.1607
1403.65	55.3698
1403.92	39.908
1404.19	45.8094
1404.46	37.0165
1404.73	28.8714
1404.99	38.9811
1405.26	53.1643
1405.53	46.7785
1405.8	83.4534
1406.07	46.3057
1406.34	87.0938
1406.61	85.8983
1406.87	72.429
1407.14	41.654
1407.41	97.0037
1407.68	78.5652
1407.95	81.6292
1408.22	107.249
1408.49	166.707
1408.76	163.623
1409.02	148.25
1409.29	153.404
1409.56	143.164
1409.83	129.842
1410.1	107.263
1410.37	87.7073
1410.63	75.1447
1410.9	64.5638
1411.17	60.1066
1411.44	40.3533
1411.71	57.5483
1411.98	29.6987
1412.25	40.8697
1412.51	20.4401
1412.78	44.2031
1413.05	30.353
1413.32	34.4459
1413.59	29.7963
1413.86	16.7205
1414.12	43.1678
1414.39	23.8217
1414.66	9.98926
1414.93	16.4958
1415.2	21.506
1415.47	40.9807
1415.73	50.1611
1416	5.97644
1416.27	26.5213
1416.54	17.2979
1416.81	-10.407
1417.07	-0.108948
1417.34	14.3131
1417.61	2.02753
1417.88	13.3608
1418.15	19.5142
1418.42	27.6898
1418.68	21.4997
1418.95	0.926636
1419.22	12.1808
1419.49	-11.5012
1419.76	25.339
1420.02	25.1097
1420.29	14.5966
1420.56	19.5051
1420.83	35.6916
1421.1	23.1144
1421.36	38.2847
1421.63	41.2213
1421.9	13.5005
1422.17	12.6492
1422.44	63.2122
1422.7	25.454
1422.97	9.43018
1423.24	-7.36346
1423.51	13.9363
1423.77	25.1362
1424.04	17.0464
1424.31	26.4567
1424.58	39.8732
1424.85	12.1589
1425.11	22.6024
1425.38	20.0878
1425.65	-8.57483
1425.92	27.1378
1426.19	20.2089
1426.45	6.74921
1426.72	-16.0301
1426.99	23.6804
1427.26	-6.35376
1427.52	23.0547
1427.79	-8.10242
1428.06	14.0853
1428.33	4.66815
1428.59	-3.63721
1428.86	36.2493
1429.13	34.1971
1429.4	-19.0344
1429.67	11.7318
1429.93	6.69055
1430.2	-5.47241
1430.47	9.05017
1430.74	-11.3199
1431	20.6727
1431.27	-7.7132
1431.54	18.1827
1431.81	1.85815
1432.07	16.1742
1432.34	-10.7269
1432.61	13.6354
1432.87	18.5741
1433.14	-5.34033
1433.41	7.60468
1433.68	7.1745
1433.95	21.11
1434.21	-15.0073
1434.48	10.4493
1434.75	16.9521
1435.01	-6.48322
1435.28	5.79401
1435.55	5.74414
1435.82	13.8665
1436.08	13.7696
1436.35	11.6099
1436.62	24.8131
1436.89	-4.01056
1437.15	-15.4183
1437.42	13.1328
1437.69	11.0046
1437.95	16.9964
1438.22	-15.8749
1438.49	5.62152
1438.76	-21.9545
1439.02	-4.51459
1439.29	15.9481
1439.56	6.72083
1439.82	27.2985
1440.09	18.2258
1440.36	0.994446
1440.63	33.8622
1440.89	-20.4833
1441.16	-2.06525
1441.43	21.5175
1441.69	1.91254
1441.96	7.8642
1442.23	10.8096
1442.49	24.2689
1442.76	-19.855
1443.03	13.0844
1443.3	3.6886
1443.56	15.7888
1443.83	-7.9718
1444.1	18.5414
1444.36	-2.04657
1444.63	28.7097
1444.9	-19.2792
1445.16	-7.8396
1445.43	21.1157
1445.7	-0.557434
1445.97	25.9803
1446.23	-17.2323
1446.5	-8.12622
1446.77	-1.06482
1447.03	14.1984
1447.3	-9.51031
1447.57	-2.47278
1447.83	6.59186
1448.1	4.40045
1448.37	-3.85925
1448.63	-3.75867
1448.9	-22.0746
1449.17	-13.8688
1449.43	13.7603
1449.7	-6.87921
1449.97	0.134216
1450.23	-28.7697
1450.5	0.768066
1450.77	39.593
1451.03	1.5451
1451.3	12.6973
1451.57	10.52
1451.83	-1.91754
1452.1	13.3141
1452.37	-10.3704
1452.63	-34.0226
1452.9	16.1398
1453.17	6.91052
1453.43	-15.583
1453.7	-21.701
1453.97	5.92511
1454.23	-4.43549
1454.5	-0.435852
1454.77	-2.53711
1455.03	-5.66064
1455.3	-8.81128
1455.56	-3.79681
1455.83	-0.755554
1456.1	5.49487
1456.36	-8.82135
1456.63	-17.0734
1456.9	17.6487
1457.16	6.17377
1457.43	14.1777
1457.7	2.78992
1457.96	5.75525
1458.23	7.71704
1458.49	10.7448
1458.76	4.56946
1459.03	2.51996
1459.29	15.8302
1459.56	-4.68079
1459.82	39.3452
1460.09	14.6703
1460.36	-9.00134
1460.62	-30.6274
1460.89	9.20062
1461.16	-23.7219
1461.42	-21.8356
1461.69	24.0826
1461.95	4.44867
1462.22	5.27356
1462.49	-0.0563354
1462.75	19.1584
1463.02	13.797
1463.28	7.40381
1463.55	11.2313
1463.82	9.96997
1464.08	-6.46973
1464.35	16.252
1464.61	-3.84735
1464.88	12.7922
1465.15	28.5213
1465.41	20.6114
1465.68	5.64612
1465.94	-7.37561
1466.21	18.0002
1466.48	23.331
1466.74	14.0088
1467.01	-5.81995
1467.27	-16.189
1467.54	-29.4189
1467.8	15.3642
1468.07	7.08813
1468.34	-12.3826
1468.6	-26.7294
1468.87	-7.41852
1469.13	9.82001
1469.4	6.6214
1469.67	16.6602
1469.93	14.3986
1470.2	-0.133728
1470.46	10.8593
1470.73	-9.69379
1470.99	-31.2432
1471.26	17.5474
1471.53	8.2052
1471.79	5.94293
1472.06	-16.6335
1472.32	1.58313
1472.59	-2.57404
1472.85	20.7705
1473.12	-10.8713
1473.39	-4.87878
1473.65	-33.5609
1473.92	-9.31
1474.18	1.72919
1474.45	-12.6319
1474.71	32.0915
1474.98	1.59113
1475.24	-18.7568
1475.51	31.0776
1475.78	-7.67792
1476.04	-9.84314
1476.31	0.164978
1476.57	15.2905
1476.84	-11.2906
1477.1	23.1061
1477.37	30.0267
1477.63	-9.76282
1477.9	-7.81055
1478.16	15.5063
1478.43	5.18378
1478.69	0.893616
1478.96	6.81281
1479.22	7.64709
1479.49	-34.218
1479.76	10.2748
1480.02	13.0786
1480.29	1.66821
1480.55	-10.8818
1480.82	11.144
1481.08	32.2264
1481.35	-9.50775
1481.61	21.7409
1481.88	-31.9979
1482.14	9.69116
1482.41	6.75879
1482.67	-5.28943
1482.94	-14.3397
1483.2	7.94269
1483.47	-5.19861
1483.73	-1.12903
1484	-5.23895
1484.26	-9.38104
1484.53	11.5314
1484.79	19.0981
1485.06	4.90955
1485.32	-25.6905
1485.59	-5.92603
1485.85	-3.62177
1486.12	-13.7914
1486.38	-11.5689
1486.65	23.1799
1486.91	3.94055
1487.18	-4.77594
1487.44	10.5082
1487.71	-17.1607
1487.97	-8.2951
1488.24	-4.41711
1488.5	13.6154
1488.77	2.23151
1489.03	11.0752
1489.3	-0.274048
1489.56	7.67181
1489.83	1.47406
1490.09	-15.8361
1490.36	12.4332
1490.62	-12.9221
1490.89	-10.044
1491.15	-7.23523
1491.42	-5.43652
1491.68	4.53906
1491.95	23.6573
1492.21	-10.7707
1492.48	-11.7943
1492.74	14.412
1493	27.4564
1493.27	20.298
1493.53	8.11426
1493.8	-6.15186
1494.06	-1.18219
1494.33	-18.4062
1494.59	17.993
1494.86	2.85303
1495.12	9.84393
1495.39	30.8759
1495.65	5.2934
1495.92	2.90088
1496.18	7.64301
1496.45	-1.659
1496.71	-11.9263
1496.97	-6.0293
1497.24	19.0313
1497.5	16.9533
1497.77	4.78265
1498.03	38.9935
1498.3	19.7462
1498.56	10.6199
1498.82	19.6711
1499.09	11.5763
1499.35	19.6384
1499.62	25.7023
1499.88	12.6089
1500.15	15.6631
1500.41	-7.57605
1500.68	-12.6824
1500.94	12.4753
1501.2	22.491
1501.47	25.3704
1501.73	-1.09753
1502	23.0156
1502.26	12.8455
1502.52	16.7952
1502.79	14.6395
1503.05	0.272949
1503.32	10.1317
1503.58	14.0087
1503.85	15.8116
1504.11	-8.44305
1504.37	24.8662
1504.64	-25.5661
1504.9	15.7354
1505.17	3.54144
1505.43	40.7045
1505.7	0.184753
1505.96	-19.2664
1506.22	7.57605
1506.49	9.47717
1506.75	17.4571
1507.02	-8.74988
1507.28	13.493
1507.54	34.637
1507.81	22.5339
1508.07	1.31244
1508.34	7.24573
1508.6	10.1676
1508.86	9.12518
1509.13	-17.0922
1509.39	-23.1771
1509.66	15.0483
1509.92	37.1604
1510.18	13.0245
1510.45	21.0935
1510.71	-1.30017
1510.98	21.6464
1511.24	5.26819
1511.5	13.0216
1511.77	-20.6097
1512.03	-22.1233
1512.29	-23.6342
1512.56	4.02618
1512.82	14.6479
1513.08	1.30438
1513.35	20.1255
1513.61	-4.19629
1513.88	7.72479
1514.14	5.87408
1514.4	-13.9212
1514.67	20.2668
1514.93	14.0836
1515.2	-1.23816
1515.46	7.50726
1515.72	-2.81067
1515.99	19.9454
1516.25	-10.4719
1516.51	3.33008
1516.78	-29.9029
1517.04	21.1138
1517.3	38.0454
1517.57	-28.2056
1517.83	1.83582
1518.09	4.85547
1518.36	22.0147
1518.62	26.0228
1518.88	9.98724
1519.15	-4.05603
1519.41	-8.04352
1519.67	20.0639
1519.94	30.0889
1520.2	22.9919
1520.47	9.81403
1520.73	9.69733
1520.99	-0.335144
1521.26	6.72278
1521.52	2.73712
1521.78	-6.31537
1522.05	13.6628
1522.31	1.48907
1522.57	3.34253
1522.84	1.17542
1523.1	-17.024
1523.36	-23.2393
1523.62	13.5392
1523.89	19.139
1524.15	2.81372
1524.41	4.57501
1524.68	-5.65033
1524.94	9.17584
1525.2	-2.79205
1525.47	28.2418
1525.73	39.2388
1525.99	-0.745239
1526.26	-5.64185
1526.52	-0.449341
1526.78	4.69196
1527.05	3.70746
1527.31	9.64661
1527.57	6.45764
1527.84	7.3476
1528.1	2.20709
1528.36	22.1193
1528.63	18.9501
1528.89	-3.24103
1529.15	18.6614
1529.41	36.5911
1529.68	3.46582
1529.94	-1.65558
1530.2	1.151
1530.47	-11.9611
1530.73	21.1141
1530.99	23.2494
1531.25	-16.6932
1531.52	-13.6074
1531.78	22.4313
1532.04	30.3322
1532.31	22.2863
1532.57	29.1229
1532.83	21.1612
1533.09	-0.699707
1533.36	29.6443
1533.62	7.81293
1533.88	3.87311
1534.15	9.90961
1534.41	16.8685
1534.67	4.72546
1534.94	-3.42413
1535.2	23.5054
1535.46	39.4133
1535.72	40.1837
1535.99	37.6581
1536.25	26.2999
1536.51	13.0159
1536.77	-25.4012
1537.04	37.2775
1537.3	15.9035
1537.56	8.71783
1537.82	-4.54968
1538.09	18.4096
1538.35	10.167
1538.61	12.8268
1538.87	-1.31555
1539.14	8.53687
1539.4	0.729553
1539.66	7.18768
1539.92	7.79102
1540.19	19.2084
1540.45	37.5756
1540.71	-0.166992
1540.97	12.055
1541.24	31.1547
1541.5	4.65094
1541.76	33.6204
1542.02	16.2743
1542.29	12.9857
1542.55	6.69128
1542.81	8.41193
1543.07	13.1512
1543.34	16.8937
1543.6	16.6125
1543.86	20.2599
1544.12	-2.10767
1544.39	12.8766
1544.65	2.87317
1544.91	20.0102
1545.17	39.243
1545.43	-15.6564
1545.7	25.6898
1545.96	7.80591
1546.22	12.8746
1546.48	5.90631
1546.74	3.79242
1547.01	23.8128
1547.27	3.82385
1547.53	18.9041
1547.79	-15.1257
1548.06	19.6887
1548.32	-3.87598
1548.58	23.1006
1548.84	16.0825
1549.1	25.3091
1549.37	0.382263
1549.63	18.392
1549.89	22.1299
1550.15	31.5867
1550.42	33.4988
1550.68	26.8279
1550.94	-21.3959
1551.2	3.51208
1551.46	26.9434
1551.73	5.89032
1551.99	23.7207
1552.25	21.3667
1552.51	8.66693
1552.77	35.0963
1553.03	-11.2817
1553.3	14.5099
1553.56	47.8991
1553.82	27.6268
1554.08	-11.6292
1554.34	7.18726
1554.61	12.8852
1554.87	8.51178
1555.13	-23.9294
1555.39	4.95215
1555.65	3.83173
1555.91	20.7964
1556.18	12.7816
1556.44	28.7609
1556.7	15.5391
1556.96	17.4944
1557.22	9.48138
1557.48	1.46082
1557.75	20.4517
1558.01	4.3136
1558.27	10.0978
1558.53	14.7576
1558.79	46.5014
1559.06	6.09467
1559.32	19.7629
1559.58	6.45648
1559.84	-1.79999
1560.1	-13.0148
1560.36	15.7864
1560.63	18.629
1560.89	10.5003
1561.15	2.39093
1561.41	25.3063
1561.67	32.3068
1561.93	17.4242
1562.19	12.6165
1562.46	-8.17432
1562.72	-2.22528
1562.98	21.6733
1563.24	18.5381
1563.5	-9.4801
1563.76	24.3718
1564.02	26.2557
1564.29	14.5182
1564.55	18.8154
1564.81	6.8598
1565.07	10.7393
1565.33	-1.83679
1565.59	12.4982
1565.85	24.1686
1566.11	19.954
1566.38	21.6924
1566.64	9.74268
1566.9	0.219116
1567.16	12.5479
1567.42	33.226
1567.68	12.9828
1567.94	34.717
1568.2	-6.98499
1568.47	26.0537
1568.73	54.1195
1568.99	-3.87213
1569.25	-2.01953
1569.51	2.5849
1569.77	21.3149
1570.03	-0.723938
1570.29	12.2783
1570.55	2.24341
1570.82	28.1794
1571.08	1.11536
1571.34	3.01178
1571.6	-15.119
1571.86	38.6314
1572.12	18.4233
1572.38	26.323
1572.64	1.17407
1572.9	20.9075
1573.17	1.7395
1573.43	13.5287
1573.69	11.3187
1573.95	1.14709
1574.21	-8.87585
1574.47	4.19983
1574.73	7.34161
1574.99	-13.4748
1575.25	-2.32379
1575.51	4.82458
1575.78	11.9235
1576.04	-10.082
1576.3	10.7764
1576.56	13.6943
1576.82	30.5134
1577.08	10.1793
1577.34	7.7674
1577.6	6.37701
1577.86	32.9381
1578.12	6.64319
1578.38	2.31995
1578.64	1.09149
1578.9	-7.00146
1579.17	18.8463
1579.43	22.763
1579.69	28.6896
1579.95	21.7009
1580.21	6.815
1580.47	3.82623
1580.73	15.7466
1580.99	19.6338
1581.25	-5.46295
1581.51	33.2099
1581.77	27.0418
1582.03	-11.08
1582.29	-1.37128
1582.55	-5.4873
1582.81	11.3214
1583.07	-20.6911
1583.33	-4.8689
1583.59	4.00427
1583.85	-10.028
1584.11	9.73682
1584.38	-0.288696
1584.64	44.5466
1584.9	-2.27026
1585.16	9.6557
1585.42	1.6134
1585.68	21.4196
1585.94	34.2802
1586.2	-4.71649
1586.46	14.9231
1586.72	-9.25995
1586.98	4.44861
1587.24	-18.626
1587.5	4.1004
1587.76	8.93219
1588.02	5.83746
1588.28	3.78937
1588.54	22.7037
1588.8	27.7203
1589.06	10.8731
1589.32	-4.00958
1589.58	7.98682
1589.84	29.9102
1590.1	30.8738
1590.36	53.7056
1590.62	25.8377
1590.88	34.8442
1591.14	-13.933
1591.4	5.89368
1591.66	12.7933
1591.92	34.5737
1592.18	7.52698
1592.44	62.0092
1592.7	11.8779
1592.96	27.5164
1593.22	18.354
1593.48	47.7829
1593.74	-2.36444
1594	2.16278
1594.26	17.7569
1594.52	36.4377
1594.78	-4.35071
1595.04	20.525
1595.3	11.7047
1595.56	12.7563
1595.82	14.6784
1596.08	24.1254
1596.34	-17.6757
1596.6	-0.858276
1596.86	0.0769653
1597.12	4.01825
1597.38	-0.950562
1597.64	-12.8574
1597.9	21.9263
1598.16	4.94812
1598.42	21.6822
1598.68	-11.3259
1598.94	31.0612
1599.2	6.94104
1599.46	23.5763
1599.72	-9.39563
1599.98	19.1588
1600.24	-4.87396
1600.5	-4.0968
1600.76	28.3863
1601.02	12.2264
1601.28	11.874
1601.54	17.4467
1601.8	-5.70105
1602.06	4.88049
1602.32	11.5525
1602.58	2.39929
1602.84	19.9485
1603.1	13.7203
1603.36	15.4269
1603.62	19.1442
1603.88	12.0378
1604.14	-13.8132
1604.4	8.8396
1604.66	-13.9526
1604.92	9.73737
1605.17	10.6695
1605.43	11.6118
1605.69	17.5124
1605.95	1.6994
1606.21	-0.239136
1606.47	22.564
1606.73	0.854736
1606.99	20.6714
1607.25	-10.8317
1607.51	-1.97577
1607.77	-7.74762
1608.03	-10.3539
1608.29	15.1725
1608.55	-3.64697
1608.81	12.6182
1609.07	13.1692
1609.32	4.0423
1609.58	8.13177
1609.84	-0.0945435
1610.1	-25.4514
1610.36	29.9413
1610.62	7.43237
1610.88	29.0386
1611.14	10.0126
1611.4	-5.70978
1611.66	20.8886
1611.92	9.04224
1612.18	24.3102
1612.44	18.1974
1612.69	-15.726
1612.95	1.7674
1613.21	0.847717
1613.47	20.8884
1613.73	29.9363
1613.99	22.8579
1614.25	-9.66327
1614.51	-5.28857
1614.77	18.5606
1615.03	9.78326
1615.29	14.6337
1615.54	13.2635
1615.8	18.2544
1616.06	0.554932
1616.32	1.3949
1616.58	6.45428
1616.84	-7.83984
1617.1	17.0159
1617.36	14.535
1617.62	5.32831
1617.88	-5.91656
1618.13	3.5589
1618.39	14.4217
1618.65	1.80359
1618.91	8.3136
1619.17	8.87543
1619.43	-14.3997
1619.69	-5.65808
1619.95	12.5229
1620.2	20.201
1620.46	4.10376
1620.72	1.39166
1620.98	15.9392
1621.24	3.36359
1621.5	9.76978
1621.76	8.10419
1622.02	18.6818
1622.27	-3.24707
1622.53	-4.24658
1622.79	8.63635
1623.05	13.7769
1623.31	11.8348
1623.57	10.5352
1623.83	19.1667
1624.09	6.81781
1624.34	6.09998
1624.6	18.6913
1624.86	15.8896
1625.12	11.021
1625.38	1.3783
1625.64	4.06519
1625.9	9.65955
1626.15	20.7255
1626.41	15.8701
1626.67	1.0899
1626.93	-8.60602
1627.19	11.4603
1627.45	4.34985
1627.7	-5.94043
1627.96	-4.48596
1628.22	5.11676
1628.48	10.1561
1628.74	0.693787
1629	-1.78973
1629.26	12.5989
1629.51	-7.37372
1629.77	-3.61047
1630.03	0.405884
1630.29	-8.1546
1630.55	-4.52191
1630.81	0.344727
1631.06	3.40472
1631.32	3.05432
1631.53	9.25342
1631.79	16.2211
1632.05	-14.2222
1632.31	12.4723
1632.57	-3.39697
1632.84	-13.079
1633.1	-0.880859
1633.36	8.61743
1633.62	2.20856
1633.88	6.98224
1634.14	8.02942
1634.4	5.15082
1634.66	-2.74786
1634.93	10.0306
1635.19	1.08929
1635.45	-10.829
1635.71	28.4865
1635.97	-0.2229
1636.23	-13.1774
1636.49	25.0893
1636.75	-1.67639
1637.02	15.8823
1637.28	11.7467
1637.54	-8.16107
1637.8	30.1037
1638.06	-24.1365
1638.32	15.1113
1638.58	17.9181
1638.84	21.7325
1639.1	14.7944
1639.37	30.4892
1639.63	3.84546
1639.89	-28.7011
1640.15	14.5386
1640.41	14.4501
1640.67	-0.345947
1640.93	-9.1037
1641.19	17.5385
1641.46	15.5457
1641.72	3.61267
1641.98	9.37024
1642.24	-9.45239
1642.5	18.9944
1642.76	22.8372
1643.02	-1.86707
1643.28	16.7484
1643.54	2.89075
1643.8	24.4655
1644.06	27.2896
1644.33	-2.38654
1644.59	-11.4312
1644.85	12.0125
1645.11	20.7813
1645.37	8.00146
1645.63	0.186462
1645.89	0.19397
1646.15	2.11682
1646.41	4.92725
1646.67	2.80035
1646.93	-16.0382
1647.19	-17.1333
1647.46	34.8561
1647.72	10.1148
1647.98	16.864
1648.24	1.05414
1648.5	-4.87048
1648.76	-3.79633
1649.02	25.8254
1649.28	-13.166
1649.54	21.4009
1649.8	12.3896
1650.06	9.28345
1650.32	11.1902
1650.58	-9.28833
1650.85	-6.18781
1651.11	15.5834
1651.37	1.8999
1651.63	-7.8999
1651.89	1.94531
1652.15	6.82086
1652.41	2.82507
1652.67	13.6442
1652.93	-4.23523
1653.19	6.44446
1653.45	0.430725
1653.71	3.33344
1653.97	-2.5946
1654.23	22.0695
1654.49	13.2015
1654.75	-15.399
1655.01	2.34332
1655.27	3.38196
1655.53	-23.1225
1655.8	-11.1033
1656.06	10.8464
1656.32	11.9848
1656.57	-18.5319
1656.84	15.0475
1657.1	-20.5042
1657.36	6.06952
1657.62	-0.969238
1657.88	15.6597
1658.14	14.5611
1658.4	9.50757
1658.66	18.2399
1658.92	13.1298
1659.18	9.98907
1659.44	11.7786
1659.7	-3.19458
1659.96	11.4138
1660.22	16.1006
1660.48	-14.4437
1660.74	4.34235
1661	0.475952
1661.26	-1.39935
1661.52	18.4353
1661.78	-8.08112
1662.04	5.75116
1662.3	-0.158569
1662.56	-25.6364
1662.82	-25.1221
1663.08	-4.53955
1663.34	-2.09393
1663.6	22.4619
1663.86	11.3181
1664.12	-29.9459
1664.38	0.475464
1664.64	-2.33112
1664.9	-11.196
1665.16	-3.91577
1665.42	16.9507
1665.68	0.1698
1665.94	2.2807
1666.2	8.37512
1666.46	-5.3371
1666.72	-9.43427
1666.98	-12.6371
1667.24	-9.38397
1667.5	5.87457
1667.76	2.67419
1668.02	-16.27
1668.28	-13.4493
1668.54	12.9944
1668.8	12.962
1669.06	15.2732
1669.32	-9.96686
1669.58	-8.94025
1669.84	0.903137
1670.1	21.6255
1670.36	4.69202
1670.62	-15.1143
1670.88	-5.83972
1671.14	-0.667175
1671.4	14.0202
1671.66	10.9348
1671.92	-1.01544
1672.18	-9.9259
1672.44	-4.96252
1672.69	0.944702
1672.95	32.521
1673.21	10.7175
1673.47	-6.11523
1673.73	5.73181
1673.99	0.795349
1674.25	10.721
1674.51	-13.936
1674.77	13.809
1675.03	36.6207
1675.29	1.12085
1675.55	-1.76807
1675.81	-18.5679
1676.07	-23.5557
1676.33	-4.81744
1676.59	13.9637
1676.85	27.814
1677.11	0.074646
1677.37	-1.96887
1677.63	4.85992
1677.89	19.575
1678.14	-1.37805
1678.4	0.384705
1678.66	-6.77454
1678.92	-6.97864
1679.18	3.72943
1679.44	-2.35748
1679.7	-3.46826
1679.96	-13.4901
1680.22	-10.6616
1680.48	10.9658
1680.74	7.86194
1681	3.77136
1681.26	12.5367
1681.52	-1.38654
1681.78	14.3544
1682.03	-3.48608
1682.29	17.2089
1682.55	27.0457
1682.81	11.2075
1683.07	-3.6972
1683.33	-21.5532
1683.59	2.0954
1683.85	-8.82239
1684.11	-2.96832
1684.37	-3.07239
1684.63	9.58716
1684.89	-0.410645
1685.14	-8.4043
1685.4	6.3302
1685.66	9.22668
1685.92	9.17316
1686.18	-11.6063
1686.44	27.8632
1686.7	7.14758
1686.96	13.201
1687.22	-10.4681
1687.48	27.0425
1687.73	-0.732483
1687.99	8.00903
1688.25	7.86182
1688.51	12.6697
1688.77	-14.1332
1689.03	-0.482727
1689.29	6.19678
1689.55	35.6097
1689.81	9.75024
1690.06	7.56024
1690.32	7.31909
1690.58	-4.61816
1690.84	-10.3887
1691.1	-0.461243
1691.36	-2.40594
1691.62	-12.2766
1691.88	-0.392273
1692.13	-5.29871
1692.39	9.46002
1692.65	-0.504333
1692.91	26.9528
1693.17	2.07294
1693.43	-22.8265
1693.69	-2.39008
1693.95	-0.720154
1694.2	-29.5207
1694.46	33.3358
1694.72	-36.844
1694.98	0.421753
1695.24	5.28778
1695.5	-33.1263
1695.76	4.30835
1696.01	13.179
1696.27	9.25177
1696.53	16.223
1696.79	11.3313
1697.05	-1.53302
1697.31	3.26819
1697.57	-11.7154
1697.82	-17.8859
1698.08	7.4502
1698.34	2.30029
1698.6	6.04388
1698.86	20.6196
1699.12	1.75848
1699.38	-21.9641
1699.63	-8.25519
1699.89	22.2507
1700.15	-1.40222
1700.41	2.5033
1700.67	8.20428
1700.92	7.13782
1701.18	19.8435
1701.44	-24.5175
1701.7	-20.7012
1701.96	-12.0299
1702.22	-2.40845
1702.47	-5.5542
1702.73	10.9426
1702.99	7.79193
1703.25	11.6287
1703.51	10.5785
1703.77	14.4089
1704.02	24.1071
1704.28	17.134
1704.54	3.4151
1704.8	7.41718
1705.06	-2.4256
1705.32	-12.3358
1705.57	-30.1176
1705.83	12.0897
1706.09	-3.67383
1706.35	10.8868
1706.61	31.286
1706.86	-14.1356
1707.12	-13.4064
1707.38	-3.84204
1707.64	3.78235
1707.9	22.1494
1708.16	-7.59119
1708.41	0.921875
1708.67	0.609314
1708.93	-1.70367
1709.19	12.6689
1709.44	1.65845
1709.7	7.36353
1709.96	-12.3171
1710.22	0.354187
1710.48	1.30865
1710.73	-23.1803
1710.99	11.1153
1711.25	23.9342
1711.51	12.225
1711.77	-0.470825
1712.02	-4.36487
1712.28	31.8497
1712.54	-7.46387
1712.8	-17.5327
1713.06	31.0187
1713.31	0.27063
1713.57	-1.08795
1713.83	3.45129
1714.09	6.01953
1714.34	-0.0404663
1714.6	-5.07172
1714.86	-2.25995
1715.12	-17.9758
1715.38	-25.8432
1715.63	21.1501
1715.89	19.3502
1716.15	6.60321
1716.41	-2.29999
1716.66	-5.39154
1716.92	-18.3077
1717.18	-9.79529
1717.44	9.38995
1717.69	-17.3544
1717.95	-16.8331
1718.21	1.2818
1718.47	-16.6211
1718.72	29.8163
1718.98	13.0284
1719.24	-9.51141
1719.5	8.93384
1719.75	-18.3745
1720.01	-3.85577
1720.27	9.8006
1720.53	5.90552
1720.78	-0.0577393
1721.04	-26.5316
1721.3	-4.41034
1721.56	-2.6814
1721.81	-6.78015
1722.07	2.71613
1722.33	-7.2561
1722.59	-12.3712
1722.84	24.3073
1723.1	5.60278
1723.36	17.039
1723.62	13.9397
1723.87	4.09326
1724.13	18.6145
1724.39	18.5053
1724.64	-4.8764
1724.9	-10.8737
1725.16	-2.39655
1725.42	12.756
1725.67	-3.10419
1725.93	13.0184
1726.19	4.04883
1726.45	-1.90314
1726.7	19.4468
1726.96	-5.84833
1727.22	-1.164
1727.47	12.0587
1727.73	-14.1471
1727.99	-5.25964
1728.24	-6.31512
1728.5	-0.679688
1728.76	-14.5909
1729.02	4.51666
1729.27	-7.46155
1729.53	15.1802
1729.79	-12.3464
1730.05	12.2082
1730.3	1.88806
1730.56	2.29755
1730.82	2.03107
1731.07	-1.94379
1731.33	7.68872
1731.59	12.5486
1731.84	-0.0298462
1732.1	8.61774
1732.36	10.4691
1732.61	18.084
1732.87	-18.7571
1733.13	-4.4234
1733.39	1.15973
1733.64	15.3518
1733.9	26.5576
1734.16	4.93317
1734.41	11.3925
1734.67	8.19843
1734.93	28.1307
1735.18	-2.05652
1735.44	27.5015
1735.7	28.1862
1735.95	-10.5375
1736.21	12.4062
1736.47	9.4093
1736.72	-11.8811
1736.98	19.7334
1737.24	25.3588
1737.49	31.9362
1737.75	-8.61115
1738.01	-6.82288
1738.26	28.5792
1738.52	20.673
1738.78	-10.2978
1739.03	25.0536
1739.29	20.972
1739.55	2.44147
1739.8	21.2941
1740.06	7.43555
1740.32	7.04034
1740.57	15.316
1740.83	-12.7836
1741.09	-8.22559
1741.34	-18.9817
1741.6	3.79645
1741.86	7.42615
1742.11	14.9177
1742.37	-3.39142
1742.63	10.8945
1742.88	4.09857
1743.14	-0.802795
1743.4	1.98993
1743.65	-30.6014
1743.91	12.3596
1744.16	2.58838
1744.42	-3.32568
1744.68	16.6108
1744.93	-1.64923
1745.19	-9.32684
1745.45	0.229065
1745.7	26.9883
1745.96	1.09406
1746.22	4.78827
1746.47	3.63538
1746.73	12.948
1746.98	20.3087
1747.24	13.3936
1747.5	6.43646
1747.75	6.2149
1748.01	-6.42072
1748.27	4.91406
1748.52	1.05402
1748.78	15.3619
1749.03	0.102295
1749.29	30.6893
1749.55	6.90125
1749.8	-0.618103
1750.06	-7.15564
1750.32	18.8129
1750.57	0.842041
1750.83	10.5638
1751.08	16.3498
1751.34	-6.51288
1751.6	6.87585
1751.85	-3.77008
1752.11	-4.03473
1752.36	2.37238
1752.62	10.7502
1752.88	-16.1925
1753.13	6.51001
1753.39	18.7053
1753.64	10.8856
1753.9	30.7549
1754.15	6.74323
1754.41	28.4695
1754.67	2.5083
1754.92	5.21747
1755.18	1.26495
1755.43	-7.4303
1755.69	17.2233
1755.95	23.7286
1756.2	3.51642
1756.46	9.00153
1756.71	19.2257
1756.97	20.8277
1757.23	8.15814
1757.48	15.5003
1757.74	3.96246
1757.99	18.1062
1758.25	-12.2913
1758.5	12.6821
1758.76	-3.42737
1759.02	0.383606
1759.27	0.379028
1759.53	-15.8009
1759.78	30.8574
1760.04	5.13446
1760.3	16.4731
1760.55	-0.74292
1760.81	-7.49902
1761.06	-13.32
1761.32	0.796265
1761.57	6.3147
1761.83	-4.31201
1762.08	-14.8886
1762.34	4.99554
1762.6	5.89789
1762.85	1.27911
1763.11	-3.39142
1763.36	6.1225
1763.62	8.9248
1763.87	31.7606
1764.13	-1.46857
1764.38	2.41394
1764.64	20.6539
1764.89	18.1176
1765.15	-5.54791
1765.4	25.014
1765.66	22.2308
1765.92	-10.0887
1766.17	9.92468
1766.43	-9.125
1766.68	-11.0677
1766.94	1.22992
1767.19	5.91846
1767.45	25.8846
1767.7	11.5241
1767.96	15.2002
1768.21	10.2996
1768.47	-3.13116
1768.73	0.590454
1768.98	-6.14099
1769.24	8.71185
1769.49	-13.6378
1769.75	2.06305
1770	22.647
1770.26	34.059
1770.51	25.7142
1770.77	10.7278
1771.02	-7.31512
1771.28	-3.46057
1771.53	0.564148
1771.79	-3.88586
1772.04	10.4802
1772.3	2.91364
1772.55	10.6589
1772.81	2.26898
1773.06	18.5709
1773.32	14.8663
1773.57	6.39746
1773.83	16.0005
1774.08	3.70343
1774.34	0.910767
1774.59	9.5235
1774.85	25.7449
1775.1	33.4827
1775.36	23.0735
1775.61	-0.585388
1775.87	-12.5859
1776.12	34.3362
1776.38	13.4753
1776.63	9.69055
1776.89	12.5055
1777.14	25.7352
1777.4	15.0942
1777.65	14.9955
1777.91	9.11786
1778.16	0.38501
1778.42	-10.255
1778.67	16.2512
1778.93	14.1561
1779.18	2.49988
1779.44	4.15839
1779.69	-12.1602
1779.95	-9.32275
1780.2	-1.46686
1780.46	15.7234
1780.71	19.5925
1780.97	13.9576
1781.22	-4.99518
1781.47	12.1573
1781.73	8.38562
1781.98	-1.05829
1782.24	2.86896
1782.49	-14.1359
1782.75	12.7383
1783	13.8246
1783.26	3.44574
1783.51	9.2594
1783.77	1.74762
1784.02	10.4407
1784.28	1.034
1784.53	12.6343
1784.79	2.36646
1785.04	-6.08405
1785.29	-4.10339
1785.55	-3.14868
1785.8	0.623352
1786.06	11.0284
1786.31	14.7521
1786.57	-0.494507
1786.82	18.6608
1787.08	15.9431
1787.33	-14.406
1787.58	8.7417
1787.84	-22.4413
1788.09	-1.8656
1788.35	15.9031
1788.6	-6.49799
1788.86	-1.3443
1789.11	16.0412
1789.37	-4.81622
1789.62	-17.9019
1789.87	8.18945
1790.13	25.5577
1790.38	15.1335
1790.64	16.2126
1790.89	6.63885
1791.15	4.68549
1791.4	10.2446
1791.65	12.5879
1791.91	0.0658569
1792.16	12.4354
1792.42	11.4935
1792.67	3.8739
1792.93	10.6308
1793.18	-32.3568
1793.43	9.87109
1793.69	29.0602
1793.94	-6.37225
1794.2	-3.37836
1794.45	13.9099
1794.7	-0.473206
1794.96	0.359192
1795.21	12.1109
1795.47	22.3897
1795.72	0.783569
1795.97	17.3349
1796.23	11.7232
1796.48	20.5325
1796.74	-3.30115
1796.99	0.719666
1797.25	7.6286
1797.5	-11.4192
1797.75	-11.2732
1798.01	13.8418
1798.26	-2.39484
1798.51	-14.8052
1798.77	17.9474
1799.02	8.34784
1799.28	15.0386
1799.53	-8.12207
1799.78	-23.6273
1800.04	2.16595
1800.29	-12.3958
1800.55	-4.82281
1800.8	-19.3251
1801.05	1.74146
1801.31	25.7119
1801.56	-4.08246
1801.81	-17.5197
1802.07	-28.0453
1802.32	-6.84521
1802.58	18.2268
1802.83	0.0978394
1803.08	13.7076
1803.34	23.5051
1803.59	2.55658
1803.84	2.71997
1804.1	1.84937
1804.35	-17.327
1804.61	4.91663
1804.86	-27.6187
1805.11	-8.20654
1805.37	-29.1779
1805.62	8.58905
1805.87	6.88898
1806.13	-0.616211
1806.38	-4.30334
1806.64	25.7148
1806.89	17.176
1807.14	-7.79089
1807.4	13.4549
1807.65	1.91138
1807.9	0.963867
1808.16	14.4811
1808.41	7.76331
1808.66	5.87079
1808.92	-17.2223
1809.17	-5.60992
1809.42	2.14984
1809.68	-5.51807
1809.93	-16.0716
1810.18	10.9738
1810.44	-4.40814
1810.69	15.863
1810.94	-2.48376
1811.2	1.34442
1811.45	5.20294
1811.7	-8.29767
1811.96	1.34644
1812.21	20.6525
1812.46	11.0701
1812.72	7.32404
1812.97	-18.5753
1813.22	11.4918
1813.48	-0.906189
1813.73	11.7039
1813.98	7.01959
1814.24	-1.45587
1814.49	11.3418
1814.74	12.5689
1815	12.8749
1815.25	2.4339
1815.5	7.41888
1815.76	11.3754
1816.01	4.67389
1816.26	-6.86627
1816.52	2.8623
1816.77	-11.5609
1817.02	-9.54846
1817.27	5.88647
1817.53	6.74573
1817.78	13.1212
1818.03	-21.9216
1818.29	9.04358
1818.54	-5.27148
1818.79	23.0007
1819.05	0.931824
1819.3	-12.6226
1819.55	29.0161
1819.8	-5.65442
1820.06	22.5008
1820.31	-6.40234
1820.56	-4.34888
1820.82	9.32587
1821.07	1.70447
1821.32	6.64215
1821.58	-3.86029
1821.83	-23.0537
1822.08	2.24719
1822.33	0.433044
1822.59	-4.30609
1822.84	11.2609
1823.09	0.682617
1823.34	20.1077
1823.6	13.3356
1823.85	22.962
1824.1	14.183
1824.36	15.1492
1824.61	-8.95807
1824.86	17.2767
1825.11	25.1199
1825.37	11.6749
1825.62	11.7911
1825.87	-15.2382
1826.12	20.633
1826.38	-6.46527
1826.63	-9.3316
1826.88	28.4861
1827.14	3.34851
1827.39	-2.38544
1827.64	-2.28052
1827.89	7.526
1828.15	-28.2139
1828.4	1.85052
1828.65	8.62097
1828.9	20.1849
1829.16	30.7385
1829.41	16.1502
1829.66	-9.04102
1829.91	-1.30243
1830.17	8.35638
1830.42	-18.8347
1830.67	12.0771
1830.92	11.0412
1831.18	8.16449
1831.43	0.539673
1831.68	-5.12933
1831.93	14.384
1832.19	-6.79041
1832.44	-0.844055
1832.69	16.7428
1832.94	8.22308
1833.2	-2.28931
1833.45	13.2617
1833.7	2.64514
1833.95	-4.03473
1834.2	-11.7241
1834.46	-2.9151
1834.71	-13.7714
1834.96	9.06061
1835.21	10.5952
1835.47	-13.007
1835.72	-23.8738
1835.97	1.07422
1836.22	11.729
1836.48	-21.3246
1836.73	24.8157
1836.98	35.4109
1837.23	18.7243
1837.48	-24.3055
1837.74	-21.9643
1837.99	-4.06885
1838.24	-30.0445
1838.49	1.36218
1838.74	12.8758
1839	-9.83081
1839.25	22.7717
1839.5	3.75079
1839.75	3.90179
1840	3.07813
1840.26	-1.526
1840.51	19.992
1840.76	-9.62506
1841.01	-2.36206
1841.27	-7.59863
1841.52	-13.768
1841.77	-7.35419
1842.02	-0.909668
1842.27	10.3878
1842.53	6.26379
1842.78	1.18512
1843.03	17.7629
1843.28	19.6348
1843.53	13.9761
1843.78	13.9923
1844.04	-4.30524
1844.29	-2.43701
1844.54	-5.30585
1844.79	-6.1344
1845.04	9.34772
1845.3	10.1992
1845.55	-7.09851
1845.8	3.54919
1846.05	-13.434
1846.3	10.1356
1846.55	2.78131
1846.81	-1.41473
1847.06	24.2208
1847.31	-18.4854
1847.56	8.05975
1847.81	-5.67035
1848.07	-8.50946
1848.32	-9.01349
1848.57	-12.442
1848.82	-7.06458
1849.07	9.10858
1849.32	5.31592
1849.57	-9.26099
1849.83	-14.2836
1850.08	-21.2496
1850.33	9.31427
1850.58	9.98346
1850.83	-2.73389
1851.09	-7.72833
1851.34	7.49237
1851.59	-6.08514
1851.84	-4.2561
1852.09	7.21332
1852.34	4.32434
1852.59	25.4745
1852.84	11.1061
1853.1	1.53455
1853.35	19.7874
1853.6	16.8843
1853.85	28.3426
1854.1	22.4442
1854.35	10.7188
1854.6	-4.87744
1854.86	1.62781
1855.11	6.32214
1855.36	-11.9902
1855.61	-7.4093
1855.86	-6.69482
1856.11	13.2973
1856.36	-3.02979
1856.61	-5.91345
1856.87	-26.9504
1857.12	-6.80737
1857.37	-10.641
1857.62	-27.9192
1857.87	16.0667
1858.12	-0.281616
1858.37	18.7662
1858.63	-8.17377
1858.88	10.8069
1859.13	25.9481
1859.38	10.4661
1859.63	5.49915
1859.88	-11.8248
1860.13	-4.16144
1860.38	-10.8134
1860.63	-3.0766
1860.89	-1.92334
1861.14	22.1724
1861.39	4.16345
1861.64	5.31799
1861.89	-2.16345
1862.14	1.74664
1862.39	-7.82977
1862.64	2.60449
1862.9	-10.9344
1863.15	-2.49005
1863.4	-4.56763
1863.65	7.70093
1863.9	-5.8277
1864.15	16.9777
1864.4	9.21234
1864.65	17.6951
1864.9	0.386536
1865.15	13.6145
1865.4	13.4307
1865.66	25.615
1865.91	-17.5693
1866.16	6.94287
1866.41	-5.77026
1866.66	19.6301
1866.91	-9.26892
1867.16	-10.5357
1867.41	15.8029
1867.66	7.90302
1867.91	4.83478
1868.16	-12.3902
1868.41	-8.64392
1868.67	30.3129
1868.92	8.50122
1869.17	6.68408
1869.42	9.56812
1869.67	15.2657
1869.92	15.2507
1870.17	-1.87036
1870.42	0.026001
1870.67	-7.58069
1870.92	-6.62524
1871.17	0.996948
1871.42	19.0806
1871.67	0.0507813
1871.92	0.944397
1872.17	-17.2131
1872.42	8.37445
1872.68	18.777
1872.93	18.6568
1873.18	-4.26794
1873.43	9.89655
1873.68	12.7455
1873.93	7.02167
1874.18	13.5848
1874.43	-12.1592
1874.68	24.6945
1874.93	-5.83453
1875.18	-0.321533
1875.43	-14.7335
1875.68	17.2946
1875.93	17.0249
1876.18	25.1072
1876.43	4.00214
1876.68	5.67456
1876.93	-20.0332
1877.18	8.26483
1877.43	7.87671
1877.68	12.1226
1877.93	-13.3572
1878.18	15.7006
1878.44	-1.01605
1878.69	13.934
1878.93	11.6957
1879.19	6.89709
1879.44	6.80536
1879.69	-9.81079
1879.94	5.13031
1880.19	5.85828
1880.44	3.01733
1880.69	12.47
1880.94	11.7594
1881.19	-13.954
1881.44	-0.699524
1881.69	9.40002
1881.94	2.39612
1882.19	0.120361
1882.44	-6.90613
1882.69	-6.40686
1882.94	-25.8253
1883.19	-13.7531
1883.44	2.64948
1883.69	39.6588
1883.94	-9.49939
1884.19	-20.1292
1884.44	4.48248
1884.69	5.97632
1884.94	23.4716
1885.19	4.98615
1885.44	0.754395
1885.69	6.58014
1885.94	12.3954
1886.19	-8.85126
1886.44	23.4974
1886.69	-18.8236
1886.94	23.6338
1887.19	0.656189
1887.44	10.8912
1887.69	13.5654
1887.94	8.68109
1888.19	12.2775
1888.44	-0.178589
1888.69	1.41705
1888.94	-7.31439
1889.19	13.1824
1889.44	-2.10413
1889.69	25.0975
1889.94	2.51855
1890.19	-5.94916
1890.44	13.0021
1890.69	-24.4203
1890.94	-5.34802
1891.19	2.29077
1891.43	-11.8242
1891.68	1.32916
1891.94	-3.34979
1892.18	6.99835
1892.43	16.4145
1892.68	14.5448
1892.93	-14.7208
1893.18	19.9807
1893.43	18.774
1893.68	1.40851
1893.93	-8.36096
1894.18	-0.898987
1894.43	-8.2359
1894.68	-4.73682
1894.93	18.6457
1895.18	13.9273
1895.43	9.30048
1895.68	-7.5014
1895.93	-18.6445
1896.18	-13.8005
1896.43	-18.3453
1896.68	17.5582
1896.93	2.72943
1897.18	9.50458
1897.42	13.4254
1897.68	-15.6049
1897.92	6.11554
1898.17	-15.4771
1898.42	-1.37225
1898.67	-0.484009
1898.92	-1.52527
1899.17	5.84985
1899.42	28.2357
1899.67	14.0205
1899.92	-1.05756
1900.17	14.8521
1900.42	9.15326
1900.67	25.1397
1900.92	28.9725
1901.16	6.5614
1901.41	-17.6798
1901.66	-8.06091
1901.91	1.55157
1902.16	14.9348
1902.41	12.3651
1902.66	22.0046
1902.91	7.01221
1903.16	8.86829
1903.41	9.76794
1903.66	20.0573
1903.91	-15.7031
1904.16	-3.48639
1904.41	15.3267
1904.65	-14.7379
1904.9	16.3057
1905.15	-14.7166
1905.4	-17.5225
1905.65	-11.8462
1905.9	9.7746
1906.15	2.06409
1906.4	17.791
1906.65	11.145
1906.9	3.57813
1907.14	1.66168
1907.39	24.1857
1907.64	0.767273
1907.89	15.8911
1908.14	15.113
1908.39	13.4452
1908.64	8.86884
1908.89	7.08728
1909.14	14.7429
1909.39	27.1456
1909.63	-1.76886
1909.88	9.77618
1910.13	1.61664
1910.38	8.53119
1910.63	27.7021
1910.88	19.548
1911.13	3.78387
1911.38	20.9198
1911.62	5.98401
1911.87	8.89368
1912.12	1.40057
1912.37	34.3591
1912.62	-5.21021
1912.87	8.94818
1913.12	18.4141
1913.37	18.4662
1913.61	-6.88434
1913.86	-9.53351
1914.11	-9.24396
1914.36	28.7741
1914.61	19.5986
1914.86	8.51123
1915.11	-2.57257
1915.36	8.96405
1915.6	25.1771
1915.85	12.0678
1916.1	7.37915
1916.35	2.64081
1916.6	11.1367
1916.85	3.51764
1917.1	2.4447
1917.34	-11.7994
1917.59	-16.5851
1917.84	4.11938
1918.09	-0.596069
1918.34	-8.06598
1918.59	23.2161
1918.83	20.629
1919.08	-3.61615
1919.33	35.3757
1919.58	22.493
1919.83	-9.20459
1920.08	28.9287
1920.33	12.1375
1920.57	19.7864
1920.82	-4.82874
1921.07	4.72717
1921.32	9.72003
1921.57	35.521
1921.81	-15.3538
1922.06	7.5083
1922.31	-3.71423
1922.56	-7.4458
1922.81	-8.40668
1923.06	13.2639
1923.31	4.68256
1923.55	1.81525
1923.8	13.1411
1924.05	23.5083
1924.3	26.2719
1924.55	8.21368
1924.79	4.38116
1925.04	16.68
1925.29	0.703796
1925.54	-2.91522
1925.79	11.489
1926.04	-2.38068
1926.28	-2.09705
1926.53	20.8713
1926.78	-3.44122
1927.03	-2.1803
1927.28	-4.79517
1927.52	37.9907
1927.77	1.23285
1928.02	26.015
1928.27	-6.03918
1928.52	18.7318
1928.76	-1.99896
1929.01	19.9547
1929.26	11.5886
1929.51	1.35034
1929.76	9.17126
1930	4.74426
1930.25	3.11407
1930.5	21.4501
1930.75	-4.8645
1931	24.8407
1931.24	28.7556
1931.49	-4.40112
1931.74	11.7256
1931.99	29.7023
1932.24	4.9588
1932.48	1.09509
1932.73	11.4677
1932.98	3.7959
1933.23	-4.72949
1933.47	26.5129
1933.72	0.0559082
1933.97	23.123
1934.22	3.65588
1934.46	4.25684
1934.71	12.6616
1934.96	20.1015
1935.21	11.2665
1935.46	6.11945
1935.7	-3.90259
1935.95	5.01288
1936.2	16.8974
1936.45	11.1442
1936.69	-9.82593
1936.94	-16.55
1937.19	13.8179
1937.44	-2.53113
1937.68	13.5352
1937.93	10.5511
1938.18	3.78412
1938.43	-4.90259
1938.68	11.3206
1938.92	18.3297
1939.17	10.8658
1939.42	11.9996
1939.67	1.71552
1939.91	-7.65131
1940.16	17.3087
1940.41	7.86749
1940.66	11.9362
1940.9	1.70819
1941.15	3.26703
1941.4	-5.90198
1941.64	23.7313
1941.89	-1.13733
1942.14	-9.96826
1942.39	3.88623
1942.63	9.96429
1942.88	11.8366
1943.13	8.26843
1943.38	-4.05927
1943.62	7.1084
1943.87	18.229
1944.12	-4.90442
1944.37	18.5776
1944.61	13.0862
1944.86	-2.91608
1945.11	3.05597
1945.35	16.6879
1945.6	15.039
1945.85	-6.68207
1946.1	14.5818
1946.34	-15.8027
1946.59	4.45435
1946.84	12.2494
1947.09	2.78772
1947.33	-6.74292
1947.58	16.1882
1947.83	-10.6235
1948.07	4.7074
1948.32	-7.68042
1948.57	4.79419
1948.82	17.2076
1949.06	6.78143
1949.31	4.11523
1949.56	7.20581
1949.8	-13.6141
1950.05	1.95715
1950.3	-1.60065
1950.54	-4.07257
1950.79	-5.55664
1951.04	-21.5052
1951.29	-2.91974
1951.53	-16.9149
1951.78	-13.6728
1952.03	18.3044
1952.27	7.00342
1952.52	14.8634
1952.77	1.60571
1953.01	10.2681
1953.26	20.0782
1953.51	11.6988
1953.76	13.436
1954	-13.7204
1954.25	3.07556
1954.49	27.593
1954.74	-4.44366
1954.99	29.7202
1955.24	-3.88269
1955.48	-2.90326
1955.73	-24.7897
1955.98	11.8967
1956.22	11.3543
1956.47	6.24457
1956.72	16.1301
1956.96	9.7356
1957.21	-8.31061
1957.46	30.3517
1957.7	3.68591
1957.95	22.1517
1958.2	11.7541
1958.44	11.8917
1958.69	15.8471
1958.94	4.40778
1959.18	-3.29883
1959.43	19.653
1959.68	20.5796
1959.92	-2.46277
1960.17	-21.7534
1960.42	0.259705
1960.66	2.10468
1960.91	16.4165
1961.16	-0.0142822
1961.4	-2.99127
1961.65	25.7229
1961.9	-14.619
1962.14	11.369
1962.39	9.54822
1962.63	-17.2432
1962.88	28.9146
1963.13	-15.1531
1963.37	11.8072
1963.62	8.04718
1963.87	12.9278
1964.11	3.41882
1964.36	22.7758
1964.61	-2.04822
1964.85	7.59009
1965.1	15.2551
1965.35	-6.76245
1965.59	20.1411
1965.84	1.96515
1966.08	22.2645
1966.33	-9.21686
1966.58	8.30988
1966.82	-9.71008
1967.07	6.80585
1967.32	-14.1837
1967.56	2.18066
1967.81	14.7332
1968.05	-1.48474
1968.3	14.9403
1968.55	16.9502
1968.79	-0.321533
1969.04	-14.7686
1969.29	0.515198
1969.53	-12.1328
1969.78	-2.73663
1970.02	1.85016
1970.27	-3.11591
1970.52	-3.2392
1970.76	13.9673
1971.01	7.15198
1971.25	8.0332
1971.5	6.06763
1971.75	6.99384
1971.99	-10.2867
1972.24	-7.3009
1972.48	24.4848
1972.73	12.1067
1972.98	15.0244
1973.22	1.56952
1973.47	3.39746
1973.71	1.34399
1973.96	21.3724
1974.21	7.88757
1974.45	-0.762695
1974.7	8.83881
1974.94	8.89087
1975.19	-21.7037
1975.44	-18.7121
1975.68	-4.17816
1975.93	18.0519
1976.17	1.90991
1976.42	-1.79266
1976.66	-2.64874
1976.91	-8.32605
1977.16	12.8304
1977.4	28.2007
1977.65	6.13037
1977.89	-6.38324
1978.14	26.1396
1978.39	-7.50818
1978.63	15.4345
1978.88	-5.69739
1979.12	8.67596
1979.37	1.05402
1979.61	16.4639
1979.86	-5.52881
1980.1	23.3088
1980.35	-1.55212
1980.6	-31.2977
1980.84	-9.35107
1981.09	-7.5249
1981.33	-8.50659
1981.58	-8.57599
1981.82	-3.8291
1982.07	5.73956
1982.31	6.71442
1982.56	13.4336
1982.81	-2.93079
1983.05	-25.0428
1983.3	22.6762
1983.54	-17.7174
1983.79	-12.1074
1984.03	-1.61688
1984.28	1.23956
1984.52	18.4218
1984.77	-8.39673
1985.02	-16.0706
1985.26	10.6115
1985.51	0.881714
1985.75	-16.3792
1986	-2.94836
1986.24	-4.76178
1986.49	7.82574
1986.73	6.10004
1986.98	-5.25726
1987.22	0.495239
1987.47	13.9905
1987.71	-18.6144
1987.96	35.6785
1988.21	1.99438
1988.45	4.5943
1988.7	11.913
1988.94	-1.0202
1989.19	6.02014
1989.43	-4.34729
1989.68	-35.6318
1989.92	11.3261
1990.17	12.1108
1990.41	3.64545
1990.66	-8.97821
1990.9	0.739441
1991.15	27.2138
1991.39	-15.4481
1991.64	16.938
1991.88	6.11487
1992.13	4.26001
1992.37	6.18127
1992.62	3.07983
1992.86	15.5681
1993.11	21.0343
1993.35	13.6232
1993.6	-3.1076
1993.84	20.5591
1994.09	4.97363
1994.33	-17.5916
1994.58	30.0055
1994.82	-24.5746
1995.07	4.0921
1995.31	-1.09753
1995.56	12.7426
1995.8	3.46661
1996.05	-8.5766
1996.29	7.1955
1996.54	-0.448792
1996.78	21.8959
1997.03	5.27869
1997.27	9.35291
1997.52	11.6079
1997.76	7.7265
1998.01	1.5907
1998.25	3.40387
1998.5	2.69281
1998.74	8.77301
1998.99	8.19305
1999.23	0.0693359
1999.48	5.05847
1999.72	1.64551
1999.97	7.80768
2000.21	9.98322
2000.46	9.73737
2000.7	10.1307
2000.95	22.0992
2001.19	1.46991
2001.43	10.5086
2001.68	5.45563
2001.92	-2.87036
2002.17	-7.07336
2002.41	-2.33215
2002.66	9.0932
2002.9	16.6622
2003.15	5.70941
2003.39	-9.10822
2003.64	5.09546
2003.88	7.90253
2004.13	3.90503
2004.37	3.57745
2004.61	13.6224
2004.86	1.20697
2005.1	5.01642
2005.35	12.5507
2005.59	19.4384
2005.84	8.57013
2006.08	9.86688
2006.33	18.455
2006.57	21.8063
2006.81	24.1263
2007.06	8.28357
2007.3	8.64771
2007.55	-10.3891
2007.79	4.53015
2008.04	4.63733
2008.28	7.13629
2008.53	6.41565
2008.77	10.8083
2009.01	9.53424
2009.26	2.30762
2009.5	1.57263
2009.75	13.9691
2009.99	8.29199
2010.24	13.4265
2010.48	16.3794
2010.73	13.7505
2010.97	-0.7854
2011.21	-14.8052
2011.46	-9.98621
2011.7	4.98236
2011.95	11.3309
2012.19	-2.64825
2012.43	10.3959
2012.68	14.1675
2012.92	8.52936
2013.17	20.6741
2013.42	4.46802
2013.67	35.1854
2013.91	7.75281
2014.16	15.9933
2014.41	17.5918
2014.66	22.8751
2014.9	2.86041
2015.15	7.52118
2015.4	-7.38898
2015.64	4.98859
2015.89	-11.7035
2016.14	0.664795
2016.39	5.34442
2016.63	-0.958923
2016.88	10.9629
2017.13	14.9077
2017.37	-3.8667
2017.62	-27.4071
2017.87	9.1264
2018.11	6.1369
2018.36	19.9865
2018.61	7.52594
2018.86	0.74115
2019.1	18.3427
2019.35	7.7832
2019.6	32.8659
2019.84	-22.4937
2020.09	23.367
2020.34	9.32562
2020.58	29.9832
2020.83	17.8389
2021.08	26.3058
2021.33	4.87958
2021.57	10.6183
2021.82	-20.218
2022.07	9.78735
2022.31	5.10132
2022.56	9.74176
2022.81	4.98029
2023.05	23.5782
2023.3	17.8067
2023.55	18.6415
2023.8	13.8582
2024.04	17.4945
2024.29	5.23621
2024.54	13.5658
2024.78	17.1133
2025.03	19.7098
2025.27	14.8438
2025.52	13.7292
2025.77	-5.10004
2026.02	16.2162
2026.26	-1.71344
2026.51	14.2877
2026.76	12.7855
2027	-14.6541
2027.25	-12.1353
2027.5	-4.86273
2027.74	18.0748
2027.99	-24.0639
2028.23	2.64221
2028.48	-11.0858
2028.73	-1.92419
2028.98	15.1522
2029.22	-1.56476
2029.47	15.6662
2029.72	12.7274
2029.96	0.200256
2030.21	11.5608
2030.45	-10.7204
2030.7	6.09521
2030.95	12.047
2031.19	-15.2896
2031.44	-7.30438
2031.69	-3.62073
2031.93	1.11823
2032.18	10.5403
2032.43	22.038
2032.67	22.3689
2032.92	15.2582
2033.17	15.5886
2033.41	4.64563
2033.66	28.2449
2033.91	1.4339
2034.15	12.8357
2034.4	-10.8746
2034.64	2.68854
2034.89	30.8892
2035.14	5.56024
2035.38	12.4933
2035.63	-2.10602
2035.87	15.2151
2036.12	-5.64319
2036.37	11.6549
2036.61	8.88263
2036.86	29.1083
2037.11	-1.64941
2037.35	-4.2005
2037.6	8.01569
2037.84	3.36932
2038.09	-4.11829
2038.34	2.39728
2038.58	13.5699
2038.83	-4.24213
2039.08	17.1924
2039.32	21.8039
2039.57	-0.683777
2039.81	-2.61639
2040.06	7.54956
2040.31	23.2633
2040.55	1.64819
2040.8	-16.2115
2041.04	34.0386
2041.29	-8.95764
2041.54	9.62274
2041.78	24.5425
2042.03	4.98346
2042.27	7.74048
2042.52	3.05377
2042.77	8.54822
2043.01	8.55322
2043.26	1.1626
2043.5	14.3432
2043.75	23.9438
2044	13.1411
2044.24	24.7288
2044.49	16.5215
2044.73	22.1478
2044.98	8.96588
2045.23	-6.23688
2045.47	-12.441
2045.72	15.6021
2045.96	24.3087
2046.21	11.4969
2046.45	19.3932
2046.7	17.8494
2046.95	17.1532
2047.19	19.4384
2047.44	0.869324
2047.68	-4.89172
2047.93	-14.7625
2048.17	4.71899
2048.42	0.157654
2048.67	9.58447
2048.91	-28.5226
2049.16	-6.93329
2049.4	-2.93726
2049.65	4.75629
2049.89	5.04602
2050.14	-1.13788
2050.39	12.2112
2050.63	6.89612
2050.88	-32.1501
2051.12	-3.08362
2051.37	2.53949
2051.61	5.25073
2051.86	18.1615
2052.11	1.41339
2052.35	1.49585
2052.6	28.7643
2052.84	0.847595
2053.09	15.9516
2053.33	-16.5522
2053.58	25.7131
2053.82	-2.05475
2054.07	7.72809
2054.31	16.359
2054.56	14.6601
2054.8	25.043
2055.05	25.0917
2055.3	1.73181
2055.54	18.5795
2055.79	24.0682
2056.03	-0.265747
2056.28	-2.10645
2056.52	0.691467
2056.77	0.67395
2057.01	2.55988
2057.26	6.35962
2057.5	-9.42743
2057.75	22.4829
2058	-11.0102
2058.24	12.5494
2058.49	3.383
2058.73	7.38245
2058.98	10.4329
2059.22	-1.50439
2059.47	5.23376
2059.71	19.3906
2059.96	6.39423
2060.2	-13.1829
2060.45	23.2957
2060.69	-2.96429
2060.94	3.57013
2061.18	0.921326
2061.43	18.8854
2061.67	-6.24554
2061.92	-2.40033
2062.16	8.91772
2062.41	-9.71399
2062.65	24.1166
2062.9	3.66486
2063.14	1.03131
2063.39	-2.51044
2063.63	9.86493
2063.88	3.47614
2064.12	29.8706
2064.37	-4.67523
2064.61	15.1384
2064.86	1.23389
2065.1	7.97693
2065.35	4.47351
2065.59	13.2181
2065.84	2.24084
2066.08	7.18781
2066.33	0.835449
2066.57	-11.1981
2066.82	7.68134
2067.06	16.2834
2067.31	16.4393
2067.55	5.30182
2067.8	4.53168
2068.04	15.0615
2068.29	10.5382
2068.53	2.22858
2068.78	3.28107
2069.02	20.3852
2069.27	23.2817
2069.51	7.25415
2069.76	21.1942
2070	17.16
2070.25	5.82373
2070.49	9.71948
2070.73	6.35193
2070.98	-1.65186
2071.22	-12.4767
2071.47	2.58319
2071.71	20.2856
2071.96	6.19183
2072.2	-7.55353
2072.45	4.7005
2072.69	2.82635
2072.94	24.5251
2073.18	-8.4303
2073.43	17.9965
2073.67	17.0786
2073.92	-9.18286
2074.16	8.7981
2074.4	23.9755
2074.65	-1.29614
2074.89	12.1006
2075.14	3.89398
2075.38	23.077
2075.63	-4.79395
2075.87	6.99622
2076.12	12.0603
2076.36	9.43872
2076.6	14.2439
2076.85	8.68073
2077.09	-13.9922
2077.34	12.3443
2077.58	-0.976563
2077.83	-6.92145
2078.07	27.0059
2078.31	26.2244
2078.56	20.802
2078.8	13.3906
2079.05	5.03491
2079.29	9.93011
2079.54	9.23669
2079.78	0.223267
2080.03	-1.44562
2080.27	22.371
2080.51	-18.0653
2080.76	25.5678
2081	10.525
2081.25	29.4101
2081.49	27.5306
2081.74	-15.8885
2081.98	6.8446
2082.22	22.9433
2082.47	-3.38519
2082.71	9.02307
2082.96	0.628418
2083.2	13.9406
2083.45	-20.9715
2083.69	-3.927
2083.93	1.7782
2084.18	22.6345
2084.42	-3.74744
2084.67	-6.52484
2084.91	3.94788
2085.15	17.2687
2085.4	15.4517
2085.64	-2.43994
2085.89	-5.20532
2086.13	-6.03088
2086.37	8.41003
2086.62	4.94061
2086.86	16.5355
2087.11	-8.86188
2087.35	15.8955
2087.59	17.0375
2087.84	3.9306
2088.08	5.89594
2088.32	28.6883
2088.57	6.06219
2088.81	21.3069
2089.06	-2.24792
2089.3	-35.2751
2089.54	12.2412
2089.79	9.59857
2090.03	-5.28418
2090.28	-12.7244
2090.52	25.2728
2090.76	-10.6041
2091.01	2.79681
2091.25	2.94818
2091.5	8.78619
2091.74	13.6736
2091.98	9.20007
2092.23	0.957031
2092.47	18.3436
2092.72	30.0499
2092.96	17.1017
2093.2	9.78156
2093.45	20.4893
2093.69	-2.04498
2093.93	26.7164
2094.18	21.2437
2094.42	7.19733
2094.66	-7.90234
2094.91	1.67059
2095.15	19.7645
2095.39	2.66339
2095.64	17.81
2095.88	8.23059
2096.13	13.8894
2096.37	20.5178
2096.61	-0.37323
2096.86	12.9649
2097.1	29.1493
2097.34	-20.2802
2097.59	18.5741
2097.83	5.19385
2098.07	9.94366
2098.32	-9.01685
2098.56	20.4401
2098.8	12.8018
2099.05	4.32776
2099.29	16.7137
2099.53	-13.6349
2099.78	19.6142
2100.02	14.9224
2100.27	10.2517
2100.51	-13.383
2100.75	-6.63135
2101	11.5459
2101.24	-6.23712
2101.48	19.617
2101.73	19.7819
2101.97	-8.59631
2102.21	4.7688
2102.45	-19.8773
2102.7	9.63855
2102.94	25.8065
2103.18	14.3522
2103.43	-17.0692
2103.67	4.74957
2103.92	0.998718
2104.16	5.7691
2104.4	8.69879
2104.64	12.6288
2104.89	-7.12372
2105.13	14.8977
2105.37	-2.97192
2105.62	12.4276
2105.86	23.1207
2106.1	18.5862
2106.35	15.8887
2106.59	7.4798
2106.83	-0.0172729
2107.08	-4.66949
2107.32	13.5325
2107.56	18.3802
2107.8	16.4615
2108.05	11.6288
2108.29	21.0019
2108.53	-13.3442
2108.78	17.8647
2109.02	-4.07007
2109.26	14.9256
2109.51	-3.01398
2109.75	5.79474
2109.99	-4.4314
2110.23	-12.9045
2110.48	-39.4332
2110.72	-14.6669
2110.96	28.149
2111.21	16.8194
2111.45	23.5302
2111.69	6.44702
2111.93	18.7583
2112.18	27.2947
2112.42	-8.76965
2112.66	10.2878
2112.91	16.1304
2113.15	7.73047
2113.39	6.93988
2113.63	6.24615
2113.88	10.2725
2114.12	16.1188
2114.36	7.58838
2114.61	14.2423
2114.85	-1.86035
2115.09	20.1023
2115.33	7.83466
2115.58	10.7136
2115.82	-7.33856
2116.06	23.0792
2116.31	-14.9222
2116.55	28.6955
2116.79	-2.72729
2117.03	6.7691
2117.28	-6.49561
2117.52	3.98822
2117.76	23.0815
2118	25.9206
2118.25	-4.51257
2118.49	5.87439
2118.73	-1.84796
2118.97	16.0257
2119.22	-12.5342
2119.46	18.6724
2119.7	10.0472
2119.94	2.37732
2120.19	-13.8026
2120.43	-4.36414
2120.67	0.40387
2120.91	-6.13696
2121.16	-10.6823
2121.4	29.2656
2121.64	14.3423
2121.88	-2.46826
2122.13	2.51062
2122.37	-11.4925
2122.61	15.2837
2122.85	5.98157
2123.1	-23.2696
2123.34	19.6024
2123.58	15.9395
2123.82	3.69861
2124.07	14.1522
2124.31	-1.99927
2124.55	-4.90302
2124.79	24.3878
2125.03	6.13135
2125.28	-4.58667
2125.52	8.42017
2125.76	-1.24115
2126	9.96375
2126.25	10.7596
2126.49	-12.0815
2126.73	-9.32788
2126.97	5.72345
2127.21	-20.8509
2127.46	12.1643
2127.7	3.65851
2127.94	-1.98193
2128.18	-1.01025
2128.43	-28.4329
2128.67	-9.50208
2128.91	3.80615
2129.15	-4.62585
2129.39	0.141785
2129.64	22.8372
2129.88	-14.9475
2130.12	-2.62286
2130.36	3.08264
2130.6	22.9534
2130.85	-12.9394
2131.09	-17.6632
2131.33	-8.23383
2131.57	-10.1596
2131.81	9.62909
2132.06	4.87286
2132.3	25.6434
2132.54	2.96997
2132.78	4.78302
2133.02	-23.5948
2133.27	-3.77631
2133.51	17.9888
2133.75	-3.61053
2133.99	17.2523
2134.23	-7.20325
2134.48	-1.43481
2134.72	2.43658
2134.96	2.49005
2135.2	28.9655
2135.44	-5.90088
2135.68	-11.5269
2135.93	9.23114
2136.17	12.9476
2136.41	-8.90216
2136.65	17.349
2136.89	5.9978
2137.14	16.4741
2137.38	14.694
2137.62	-4.07306
2137.86	-41.6345
2138.1	6.68988
2138.34	0.104736
2138.59	5.6225
2138.83	14.0204
2139.07	-7.44934
2139.31	12.6669
2139.55	19.5212
2139.79	4.12958
2140.03	6.7467
2140.28	1.97894
2140.52	30.204
2140.76	6.62933
2141	0.970703
2141.24	7.57947
2141.49	24.546
2141.73	2.9707
2141.97	3.83563
2142.21	1.85999
2142.45	25.4023
2142.69	-23.47
2142.93	-4.42456
2143.18	9.89099
2143.42	-5.43829
2143.66	-10.3663
2143.9	21.7019
2144.14	-14.8735
2144.38	19.1728
2144.62	-6.80859
2144.87	7.62769
2145.11	9.73499
2145.35	13.1383
2145.59	-4.58685
2145.83	14.3281
2146.07	-4.44269
2146.31	18.1354
2146.55	4.98492
2146.8	10.6403
2147.04	3.13666
2147.28	-0.621155
2147.52	-10.9858
2147.76	-0.672729
2148	19.9796
2148.24	4.00769
2148.48	30.2963
2148.73	-13.8572
2148.97	-2.60718
2149.21	4.86664
2149.45	7.60651
2149.69	14.0745
2149.93	-6.80176
2150.17	-2.20465
2150.42	-15.4557
2150.66	13.5336
2150.9	-14.5851
2151.14	-21.0831
2151.38	-1.25989
2151.62	0.817261
2151.86	-11.2183
2152.1	2.10254
2152.34	-24.0283
2152.58	-24.7859
2152.83	-18.2502
2153.07	-11.71
2153.31	4.17224
2153.55	2.25134
2153.79	23.8245
2154.03	9.77435
2154.27	-1.51843
2154.51	-2.55798
2154.75	-2.73151
2154.99	-12.3274
2155.24	-16.2816
2155.48	5.9184
2155.72	17.9145
2155.96	28.9833
2156.2	4.5694
2156.44	14.7839
2156.68	-14.1765
2156.92	-3.85364
2157.16	6.48254
2157.4	0.960754
2157.64	-12.9187
2157.89	22.7675
2158.13	28.5949
2158.37	-8.58832
2158.61	13.9565
2158.85	-4.66315
2159.09	18.7512
2159.33	1.94226
2159.57	-2.74323
2159.81	6.56018
2160.05	-10.3241
2160.29	12.9243
2160.53	3.47974
2160.77	5.26294
2161.01	8.93127
2161.25	-14.4001
2161.5	-5.96014
2161.74	1.51672
2161.98	-9.66858
2162.22	-3.08368
2162.46	-18.8647
2162.7	15.7377
2162.94	26.068
2163.18	1.82898
2163.42	22.3319
2163.66	-2.85046
2163.9	-7.50671
2164.14	-0.977783
2164.38	-4.71271
2164.62	-8.51691
2164.86	-13.2856
2165.11	-3.07214
2165.35	-2.02917
2165.59	-0.00982666
2165.83	0.0821533
2166.07	-7.27899
2166.31	-1.59772
2166.55	0.262451
2166.79	11.4453
2167.03	4.89545
2167.27	2.96759
2167.51	23.4272
2167.75	-8.3194
2167.99	7.36829
2168.23	-12.4453
2168.47	-5.24481
2168.71	7.73956
2168.95	2.22784
2169.19	15.37
2169.43	-12.3413
2169.67	14.861
2169.91	-16.4739
2170.15	10.8464
2170.39	8.42731
2170.63	11.4723
2170.87	10.6914
2171.11	5.1369
2171.35	-5.16541
2171.59	5.09381
2171.83	8.60309
2172.07	-16.9413
2172.31	-6.89661
2172.56	9.77942
2172.79	-2.34497
2173.04	1.35736
2173.28	-1.36578
2173.51	-14.2995
2173.76	2.49951
2174	1.70868
2174.24	11.1819
2174.48	-7.25006
2174.72	0.304016
2174.96	-11.6826
2175.2	19.0681
2175.44	-7.81146
2175.68	0.590942
2175.92	7.13495
2176.16	21.1345
2176.4	-3.90717
2176.64	-7.59778
2176.88	2.59399
2177.12	7.27832
2177.36	-13.998
2177.6	10.2605
2177.84	0.141846
2178.08	-9.07562
2178.32	-1.52948
2178.55	10.5635
2178.8	3.95081
2179.03	13.1753
2179.28	-1.61139
2179.52	-0.563232
2179.75	8.82074
2180	-1.29669
2180.23	8.0733
2180.47	10.9413
2180.71	-5.70441
2180.95	16.6194
2181.19	19.4446
2181.43	9.30072
2181.67	-1.79657
2181.91	0.989441
2182.15	-1.78894
2182.39	11.2531
2182.63	25.164
2182.87	11.2637
2183.11	5.71704
2183.35	19.5763
2183.59	-20.379
2183.83	0.825989
2184.07	-6.65442
2184.31	7.22125
2184.55	-2.98846
2184.79	-5.7121
2185.03	18.4927
2185.27	-5.43713
2185.51	-14.5598
2185.75	13.3903
2185.99	-17.016
2186.23	10.0796
2186.47	14.0129
2186.7	5.88751
2186.95	16.3929
2187.18	7.42792
2187.42	-8.04431
2187.66	-30.0289
2187.9	-2.85272
2188.14	1.92273
2188.38	5.65106
2188.62	26.9732
2188.86	-10.2168
2189.1	-4.71082
2189.34	-4.79291
2189.58	-11.3926
2189.82	-10.6089
2190.06	9.68164
2190.3	1.33331
2190.54	-9.72803
2190.78	-1.2771
2191.01	-3.90369
2191.25	7.37469
2191.49	-4.58508
2191.73	-1.66852
2191.97	-10.7881
2192.21	-12.4853
2192.45	8.07587
2192.69	-21.4528
2192.93	18.5932
2193.17	15.0999
2193.41	3.25885
2193.65	-3.02405
2193.89	-23.1917
2194.13	7.8512
2194.36	7.37036
2194.6	7.70361
2194.84	16.2953
2195.08	14.4899
2195.32	-2.23431
2195.56	3.3634
2195.8	9.84955
2196.04	9.78583
2196.28	6.88599
2196.52	18.7968
2196.76	-22.1878
2197	17.6373
2197.23	-4.67682
2197.47	-8.41309
2197.71	3.63336
2197.95	-14.8176
2198.19	10.3422
2198.43	-11.7465
2198.67	-23.5431
2198.91	-8.42041
2199.15	1.17279
2199.38	6.16248
2199.62	11.1166
2199.86	-20.1404
2200.1	7.1474
2200.34	-8.21619
2200.58	-18.9047
2200.82	5.72693
2201.06	10.7777
2201.3	-4.74701
2201.54	16.9625
2201.77	-0.946228
2202.01	4.92841
2202.25	-3.94208
2202.49	-10.4355
2202.73	1.24884
2202.97	-23.4273
2203.21	0.47345
2203.45	-8.00244
2203.68	1.24451
2203.92	34.5419
2204.16	-7.74219
2204.4	12.9274
2204.64	11.1036
2204.88	0.134644
2205.12	2.53741
2205.36	31.7873
2205.59	-6.85455
2205.83	0.285339
2206.07	-1.58423
2206.31	-2.39954
2206.55	-6.78558
2206.79	-7.59259
2207.03	11.7646
2207.26	-12.2632
2207.5	1.88885
2207.74	33.7436
2207.98	5.16266
2208.22	14.7225
2208.46	1.02002
2208.7	9.64392
2208.93	-5.95123
2209.17	17.5302
2209.41	2.80737
2209.65	35.5484
2209.89	-14.6374
2210.13	-8.03864
2210.36	-19.0883
2210.6	-12.3779
2210.84	-2.86017
2211.08	5.742
2211.32	9.68848
2211.56	22.9494
2211.8	12.9208
2212.03	-2.6709
2212.27	11.5735
2212.51	3.38977
2212.75	14.7397
2212.99	13.8591
2213.23	17.6175
2213.46	17.649
2213.7	2.71429
2213.94	13.8771
2214.18	13.0875
2214.42	8.67114
2214.66	-7.72101
2214.89	-1.74457
2215.13	-10.8994
2215.37	-22.8715
2215.61	-2.18481
2215.85	2.61871
2216.08	19.5457
2216.32	16.8511
2216.56	-8.26471
2216.8	-16.5837
2217.04	7.76117
2217.28	-1.50006
2217.51	15.406
2217.75	22.0725
2217.99	-6.73322
2218.23	14.8422
2218.47	12.1362
2218.7	6.66931
2218.94	1.24219
2219.18	4.24805
2219.42	7.28192
2219.66	-5.55963
2219.9	11.4426
2220.13	25.6557
2220.37	-1.26984
2220.61	-2.117
2220.85	-16.0626
2221.09	15.7913
2221.32	-15.9495
2221.56	12.0159
2221.8	10.0583
2222.04	-12.4067
2222.27	6.23688
2222.51	15.5859
2222.75	10.0695
2222.99	-8.44385
2223.23	1.09961
2223.46	34.928
2223.7	9.00885
2223.94	-4.72711
2224.18	4.9306
2224.42	-21.8517
2224.65	-17.808
2224.89	0.240662
2225.13	16.4063
2225.37	-16.081
2225.6	2.91644
2225.84	20.0795
2226.08	6.30212
2226.32	-8.42755
2226.56	-2.54755
2226.79	-4.20538
2227.03	18.546
2227.27	27.2308
2227.51	-5.36011
2227.74	-7.98157
2227.98	-5.95172
2228.22	-11.4888
2228.46	27.9478
2228.69	4.56055
2228.93	-9.44495
2229.17	-7.49988
2229.41	3.81915
2229.64	-17.6373
2229.88	27.5927
2230.12	16.6388
2230.36	-7.46899
2230.6	-11.927
2230.83	30.5466
2231.07	4.52216
2231.31	28.2534
2231.55	-2.45782
2231.78	10.9731
2232.02	-5.69177
2232.26	-4.5033
2232.5	6.08301
2232.73	-2.12939
2232.97	1.8689
2233.21	-3.53082
2233.45	-12.7022
2233.68	-12.4667
2233.92	0.00628662
2234.16	19.9799
2234.39	-9.95142
2234.63	-0.468567
2234.87	17.4655
2235.11	11.841
2235.34	-1.35132
2235.58	1.32867
2235.82	-12.8482
2236.06	10.7849
2236.29	-2.24152
2236.53	-19.9623
2236.77	1.81702
2237	7.59827
2237.24	0.221008
2237.48	-21.1424
2237.72	6.40259
2237.95	1.13556
2238.19	2.48193
2238.43	-2.79144
2238.67	3.16742
2238.9	9.11969
2239.14	-5.64301
2239.38	2.26794
2239.61	-5.12109
2239.85	5.30518
2240.09	17.5806
2240.33	17.4894
2240.56	-23.1141
2240.8	-15.5424
2241.04	5.60803
2241.27	9.76074
2241.51	-6.12231
2241.75	27.0587
2241.99	-15.2377
2242.22	-10.366
2242.46	-8.30725
2242.7	15.4774
2242.93	-1.3147
2243.17	-5.91046
2243.41	-0.162842
2243.64	12.1256
2243.88	-9.57843
2244.12	-0.0839844
2244.36	4.72491
2244.59	2.02808
2244.83	-7.19354
2245.07	-1.21307
2245.3	2.01697
2245.54	24.118
2245.78	-10.5717
2246.01	5.74597
2246.25	9.78937
2246.49	15.7189
2246.72	-5.80334
2246.96	7.6214
2247.2	8.78583
2247.43	-5.19012
2247.67	15.8143
2247.91	14.0652
2248.14	3.75568
2248.38	18.0267
2248.62	-8.40356
2248.85	-14.9603
2249.09	4.03912
2249.33	-2.51245
2249.56	20.2785
2249.8	8.21277
2250.04	-2.94617
2250.27	-10.4144
2250.51	-0.925537
2250.75	4.72827
2250.98	-0.981323
2251.22	-0.0901489
2251.46	13.1322
2251.69	13.1415
2251.93	2.8147
2252.17	-11.2286
2252.4	-4.42316
2252.64	-17.4433
2252.88	6.45447
2253.11	-8.34918
2253.35	0.656433
2253.59	26.6072
2253.82	-10.9615
2254.06	5.42352
2254.3	13.2474
2254.53	26.7702
2254.77	-3.36029
2255.01	8.1427
2255.24	-17.412
2255.48	1.69592
2255.72	19.8281
2255.95	-7.53064
2256.19	2.0932
2256.42	-0.520142
2256.66	4.46722
2256.9	0.905518
2257.13	-19.7454
2257.37	8.95386
2257.61	9.18127
2257.84	-5.78705
2258.08	-0.851563
2258.32	24.9404
2258.55	23.1847
2258.79	12.8985
2259.02	16.8777
2259.26	-3.80707
2259.5	29.6639
2259.73	-7.21198
2259.97	5.31226
2260.2	18.8113
2260.44	11.3958
2260.68	8.72565
2260.91	23.1663
2261.15	-15.5956
2261.39	15.1705
2261.62	4.0174
2261.86	7.01685
2262.1	7.17285
2262.33	14.005
2262.57	14.1789
2262.8	-0.837891
2263.04	-0.578308
2263.28	-0.310364
2263.51	-14.3024
2263.75	17.4626
2263.98	11.1517
2264.22	27.7538
2264.46	-11.925
2264.69	10.3723
2264.93	5.91638
2265.16	-7.16882
2265.4	6.45514
2265.64	-8.58997
2265.87	-6.54425
2266.11	-17.8658
2266.34	-8.25452
2266.58	5.07813
2266.81	-7.38513
2267.05	-17.9414
2267.29	24.0133
2267.52	-0.800476
2267.76	11.6121
2267.99	9.70624
2268.23	14.432
2268.47	0.122314
2268.7	-3.62134
2268.94	10.8173
2269.17	8.16522
2269.41	-28.7734
2269.65	6.81677
2269.88	-0.506531
2270.12	14.1328
2270.35	-1.74481
2270.59	-0.459717
2270.82	26.5416
2271.06	11.454
2271.3	13.6321
2271.53	-1.42682
2271.77	29.3722
2272	-4.84119
2272.24	1.13977
2272.47	-5.37207
2272.71	1.4519
2272.95	18.8185
2273.18	-11.6483
2273.42	7.6416
2273.65	-5.60553
2273.89	13.683
2274.12	-0.520569
2274.36	-15.6862
2274.6	2.64331
2274.83	-10.6087
2275.07	13.4731
2275.3	-22.743
2275.54	-4.40332
2275.77	-21.48
2276.01	13.0782
2276.24	-1.06842
2276.48	3.99664
2276.72	-9.13141
2276.95	21.7955
2277.18	11.5076
2277.42	8.90149
2277.66	-4.18384
2277.89	4.82001
2278.13	11.9217
2278.36	22.8945
2278.6	2.94714
2278.83	12.7153
2279.07	11.8753
2279.3	-2.44476
2279.54	11.0683
2279.78	-8.14905
2280.01	9.89404
2280.24	-7.46832
2280.48	9.72723
2280.72	0.086731
2280.95	-17.1943
2281.19	-2.79834
2281.42	13.5427
2281.66	-1.77045
2281.89	14.5696
2282.13	7.09009
2282.36	-7.12671
2282.6	-3.0827
2282.83	7.71222
2283.07	-4.48236
2283.3	14.9738
2283.54	-20.2242
2283.77	-1.60754
2284.01	22.8358
2284.24	7.87024
2284.48	16.9612
2284.71	5.72034
2284.95	-15.2477
2285.19	2.33643
2285.42	20.8849
2285.65	3.72766
2285.89	-6.72644
2286.12	9.5968
2286.36	-1.13434
2286.59	18.191
2286.83	0.0794067
2287.06	1.2644
2287.3	2.65741
2287.54	-8.51733
2287.77	3.25098
2288	19.8109
2288.24	20.1149
2288.47	23.0651
2288.71	5.73138
2288.94	8.62823
2289.18	6.68896
2289.41	21.9919
2289.65	10.2919
2289.88	21.7087
2290.12	-7.31921
2290.35	4.23224
2290.59	21.5772
2290.82	11.1161
2291.06	0.665894
2291.29	20.1067
2291.53	20.4023
2291.76	-0.419006
2292	-1.11664
2292.23	-23.9886
2292.47	-5.474
2292.7	24.6158
2292.94	16.2252
2293.17	22.27
2293.41	-0.620911
2293.64	1.51868
2293.88	15.1975
2294.11	10.5288
2294.34	14.4417
2294.58	7.72345
2294.81	-4.79901
2295.05	3.85223
2295.28	9.6438
2295.52	-25.9767
2295.75	-6.70117
2295.99	21.2366
2296.22	3.93323
2296.46	-2.85504
2296.69	-7.8324
2296.93	-1.98877
2297.16	-9.52087
2297.39	-14.1287
2297.63	3.42761
2297.86	-3.0473
2298.1	6.88159
2298.33	-7.22595
2298.57	-11.7878
2298.8	-8.69312
2299.04	-0.740479
2299.27	-0.456848
2299.51	-13.7028
2299.74	0.0267334
2299.97	16.6009
2300.21	3.19379
2300.44	-11.1636
2300.68	-12.0367
2300.91	33.4924
2301.15	11.5293
2301.38	0.145203
2301.61	15.7726
2301.85	15.9283
2302.08	8.33002
2302.32	-6.06262
2302.55	1.70593
2302.79	8.52313
2303.02	-7.76013
2303.25	-6.703
2303.49	-1.80786
2303.72	-9.43121
2303.96	-7.38141
2304.19	-3.34784
2304.43	10.3896
2304.66	-22.2222
2304.89	11.7557
2305.13	4.23566
2305.36	-10.9833
2305.6	14.3176
2305.83	-0.0332642
2306.07	-4.70221
2306.3	21.5822
2306.53	-10.1196
2306.77	3.54791
2307	31.6987
2307.24	-5.90039
2307.47	-1.94952
2307.7	-0.938049
2307.94	1.98267
2308.17	-4.72583
2308.41	-3.71545
2308.64	5.02924
2308.87	3.20172
2309.11	8.16956
2309.34	14.1758
2309.58	-0.0986938
2309.81	-3.69153
2310.04	-12.0782
2310.28	6.54767
2310.51	-12.6276
2310.75	-2.82935
2310.98	-1.77588
2311.21	-10.4473
2311.45	9.81232
2311.68	2.76233
2311.92	-0.464905
2312.15	11.9551
2312.38	-0.661987
2312.62	6.10065
2312.85	20.5608
2313.08	2.24207
2313.32	-18.8906
2313.55	10.2401
2313.79	7.65619
2314.02	-11.2889
2314.25	-17.7515
2314.49	-0.0618286
2314.72	2.18097
2314.95	6.40564
2315.19	-2.93408
2315.42	4.05695
2315.66	-3.75507
2315.89	1.01715
2316.12	18.3874
2316.36	12.5068
2316.59	5.47614
2316.82	16.01
2317.06	5.39478
2317.29	20.9323
2317.52	-3.06836
2317.76	-0.995972
2317.99	-0.714233
2318.23	8.20374
2318.46	23.5297
2318.69	-2.55499
2318.93	4.21814
2319.16	-5.43933
2319.39	-17.9957
2319.63	7.10272
2319.86	13.8859
2320.09	-1.50006
2320.33	-7.18451
2320.56	10.3055
2320.79	-11.791
2321.03	13.466
2321.26	-7.56396
2321.5	3.26758
2321.73	22.8066
2321.96	-2.05115
2322.2	11.765
2322.43	-3.38263
2322.66	-3.1073
2322.9	7.69586
2323.13	-7.70044
2323.36	-4.66815
2323.6	7.08478
2323.83	2.39117
2324.06	20.9113
2324.3	17.1665
2324.53	8.53595
2324.76	21.1759
2325	-8.85828
2325.23	23.8962
2325.46	17.9543
2325.7	8.23712
2325.93	16.8961
2326.16	12.0345
2326.4	47.7097
2326.63	25.4606
2326.86	48.5668
2327.09	49.4771
2327.33	81.2471
2327.56	122.64
2327.79	166.971
2328.03	227.657
2328.26	222.837
2328.49	137.199
2328.73	86.2197
2328.96	63.2053
2329.19	44.8492
2329.43	45.7747
2329.66	29.3094
2329.89	-8.22028
2330.13	14.9653
2330.36	9.37482
2330.59	21.9476
2330.82	18.1378
2331.06	13.3588
2331.29	9.58197
2331.52	2.02313
2331.76	-18.0069
2331.99	-12.0201
2332.22	-32.9641
2332.46	-11.8439
2332.69	0.647278
2332.92	8.35413
2333.16	0.657227
2333.39	-3.18335
2333.62	-7.01892
2333.85	1.67029
2334.09	1.70673
2334.32	0.750854
2334.55	12.2842
2334.79	10.2832
2335.02	-11.8411
2335.25	23.773
2335.48	6.53778
2335.72	-13.5953
2335.95	-3.8551
2336.18	3.02106
2336.41	11.7535
2336.65	-19.9523
2336.88	-16.0491
2337.11	11.9046
2337.34	-20.7137
2337.58	32.2311
2337.81	-10.0009
2338.04	3.50055
2338.28	9.31989
2338.51	-9.8371
2338.74	3.68561
2338.97	3.76398
2339.21	8.69281
2339.44	4.96179
2339.67	-0.709839
2339.91	21.475
2340.14	-17.8878
2340.37	-16.9081
2340.6	-26.5276
2340.84	-12.1282
2341.07	14.7182
2341.3	3.10547
2341.53	-2.76917
2341.77	11.4719
2342	2.74286
2342.23	6.5567
2342.46	6.54279
2342.7	-7.84235
2342.93	9.43829
2343.16	-6.80109
2343.39	-8.63336
2343.63	18.3124
2343.86	7.83447
2344.09	3.11176
2344.32	2.26025
2344.56	14.8657
2344.79	4.44226
2345.02	18.8999
2345.25	2.65784
2345.49	-6.89886
2345.72	23.7593
2345.95	-9.85339
2346.18	0.661743
2346.41	-2.23767
2346.65	13.1349
2346.88	5.53461
2347.11	8.47229
2347.34	4.68091
2347.58	10.4713
2347.81	-21.9958
2348.04	-3.69336
2348.27	-17.9167
2348.5	9.07086
2348.74	12.095
2348.97	-9.83661
2349.2	18.929
2349.43	7.42487
2349.67	-0.4151
2349.9	2.2724
2350.13	-7.52167
2350.36	17.0355
2350.59	7.09454
2350.83	20.6365
2351.06	-18.7604
2351.29	-0.49884
2351.52	14.2748
2351.75	10.2791
2351.99	12.8397
2352.22	16.0101
2352.45	7.57898
2352.68	-1.7868
2352.91	19.8558
2353.15	2.18384
2353.38	-1.99164
2353.61	12.5647
2353.84	-7.40027
2354.07	16.3851
2354.31	0.301514
2354.54	5.13672
2354.77	-18.4174
2355	14.2318
2355.23	10.4981
2355.47	-3.73779
2355.7	4.87781
2355.93	2.05658
2356.16	8.74719
2356.39	13.493
2356.63	19.0912
2356.86	9.35504
2357.09	3.49628
2357.32	36.7492
2357.55	-14.6194
2357.79	6.29242
2358.02	3.44226
2358.25	-14.6094
2358.48	20.5875
2358.71	7.32971
2358.94	14.8887
2359.18	30.1205
2359.41	-28.7243
2359.64	-10.6127
2359.87	-15.3388
2360.1	22.6377
2360.33	-0.193787
2360.57	1.65424
2360.8	-6.93768
2361.03	-3.19031
2361.26	5.29437
2361.49	-9.93781
2361.72	-3.35962
2361.96	0.370117
2362.19	8.82983
2362.42	-20.6213
2362.65	-15.9517
2362.88	-1.79041
2363.11	28.4743
2363.34	-5.62073
2363.58	6.68488
2363.81	-6.53937
2364.04	-2.72363
2364.27	2.03162
2364.5	-0.797363
2364.73	-1.73889
2364.97	-4.5694
