#Acq. time (s)=	30
#Accumulations=	2
#Range (cm-¹)=	1200...2365
#Windows=	3
#Auto scanning=	Off
#Autofocus=	Off
#Macrospot=	Off
#AutoExposure=	Off
#Spike filter=	Multiple accum.
#Delay time (s)=	2
#Binning=	1
#Readout mode=	Signal
#DeNoise=	Off
#ICS correction=	On
#Dark correction=	Off
#Inst. Process=	Off
#Detector Gain=	Best Dynamic
#Detector ADC=	50 kHz HS
#Detector temperature (°C)=	-60.09
#Instrument=	LabRAM HR Evol
#Detector=	SIN-EM FIVIS
#Objective=	x50_VIS_LWD
#Grating=	1800 (450-850nm)
#ND Filter=	100%
#Laser=	532nm_Edge
#Hole=	100.021
#Temperature=	0
#Range=	Visible
#StageXY=	75x50mm Scan+
#StageZ=	Z motor
#X (µm)=	0
#Y (µm)=	0
#Z (µm)=	2.5
#Full time(mm:ss)=	3:18
#Project=	21_11_26
#Sample=	BU19(2)w
#Site=	
#Title=	BU19(2)w-A-FF2b-FI05-V_1800 (450-850nm)_532nm_Edge_100%_x50_VIS_LWD_H100um_30sX2
#Remark=	
#Date=	26.11.2021 14:50
#Acquired=	26.11.2021 14:50:13
#Base:Fit=	16.12.2021 16:00:56
#Base:Fit=	16.12.2021 16:10:24
#Base:Sub=	16.12.2021 16:10:25
1202.72	6.86941
1203	8.32047
1203.28	7.50273
1203.56	2.28181
1203.84	1.35424
1204.11	5.82704
1204.39	7.07727
1204.67	8.36781
1204.95	3.21201
1205.23	4.47363
1205.5	1.41705
1205.78	-2.71793
1206.06	6.02591
1206.34	0.80793
1206.61	-1.1889
1206.89	2.17348
1207.17	1.24517
1207.45	2.46391
1207.73	3.69158
1208	2.77623
1208.28	-1.34519
1208.56	6.30076
1208.84	8.58194
1209.11	7.65325
1209.39	-2.89867
1209.67	2.59942
1209.95	-5.79707
1210.23	-0.301697
1210.5	-0.164223
1210.78	3.15717
1211.06	2.20331
1211.34	1.25488
1211.61	-0.76635
1211.89	-1.71558
1212.17	1.59071
1212.45	0.629555
1212.72	6.0713
1213	-5.54111
1213.28	-3.30282
1213.56	-3.18924
1213.83	-2.00696
1214.11	-4.02797
1214.39	-4.96404
1214.67	-2.70992
1214.94	-5.7831
1215.22	9.23907
1215.5	-2.35972
1215.78	-1.18575
1216.05	2.11241
1216.33	-0.993027
1216.61	-4.10686
1216.89	2.34402
1217.16	0.287148
1217.44	-1.76232
1217.72	-0.623199
1218	-1.61127
1218.27	3.77463
1218.55	0.664909
1218.83	-1.38277
1219.1	-7.6685
1219.38	-4.40128
1219.66	0.983734
1219.94	6.36323
1220.21	2.18863
1220.49	2.2683
1220.77	-0.83252
1221.04	3.48438
1221.32	0.371643
1221.6	-1.68813
1221.88	2.61189
1222.15	-5.81879
1222.43	-7.89678
1222.71	-1.50839
1222.98	1.69379
1223.26	-4.62731
1223.54	0.688896
1223.81	-0.339371
1224.09	2.8635
1224.37	-11.893
1224.65	-3.40327
1224.92	0.862251
1225.2	-0.148186
1225.48	-2.20663
1225.76	5.24693
1226.03	2.14117
1226.31	-3.0765
1226.59	1.19225
1226.86	2.29039
1227.14	-0.845406
1227.42	1.29731
1227.69	-3.9758
1227.97	-2.95403
1228.25	1.25298
1228.52	0.193253
1228.8	-4.05201
1229.08	-7.22573
1229.35	-2.99138
1229.63	-5.91907
1229.91	-2.55488
1230.18	3.73158
1230.46	-0.531174
1230.74	-5.7945
1231.01	0.56456
1231.29	4.75641
1231.57	1.46251
1231.84	4.6578
1232.12	-7.92725
1232.4	2.60355
1232.67	-4.7367
1232.95	2.63939
1233.23	4.75825
1233.5	-1.53145
1233.78	3.73933
1234.06	6.91521
1234.33	5.8914
1234.61	-1.43687
1234.89	-2.45902
1235.16	-0.327736
1235.44	0.744995
1235.71	4.97185
1235.99	-5.51741
1236.27	0.810104
1236.54	3.97479
1236.82	0.82135
1237.1	2.92084
1237.37	3.96272
1237.65	2.89201
1237.93	3.91981
1238.2	8.09561
1238.48	3.87205
1238.76	6.9941
1239.03	-3.51279
1239.31	-0.376389
1239.58	5.90655
1239.86	0.65889
1240.14	1.70398
1240.41	5.89561
1240.69	9.04074
1240.97	-2.48682
1241.24	7.99975
1241.52	-1.43267
1241.79	1.70322
1242.07	3.78206
1242.35	-2.51784
1242.62	2.71996
1242.9	1.67332
1243.18	1.6807
1243.45	5.87998
1243.73	6.92159
1244	7.96466
1244.28	5.8674
1244.56	11.101
1244.83	5.84615
1245.11	0.588768
1245.39	13.1377
1245.66	11.0096
1245.94	2.58971
1246.21	13.0214
1246.49	12.9977
1246.76	8.79265
1247.04	6.68855
1247.32	9.81541
1247.59	5.60928
1247.87	3.50208
1248.14	10.8056
1248.42	14.9426
1248.7	17.0022
1248.97	15.9377
1249.25	15.9295
1249.52	4.41657
1249.8	15.9011
1250.08	7.51566
1250.35	11.6848
1250.63	6.4211
1250.9	13.7001
1251.18	11.5721
1251.45	9.44716
1251.73	13.5934
1252.01	15.6489
1252.28	16.6581
1252.56	8.26865
1252.83	12.41
1253.11	15.5033
1253.39	15.4663
1253.66	10.2206
1253.94	18.5504
1254.21	12.2855
1254.49	15.4157
1254.76	15.4175
1255.04	14.3622
1255.31	17.475
1255.59	21.64
1255.87	22.6641
1256.14	22.6388
1256.42	25.7561
1256.69	35.1432
1256.97	46.6292
1257.24	49.7484
1257.52	55.9877
1257.79	52.8139
1258.07	52.7807
1258.35	40.2191
1258.62	42.2757
1258.9	37.0205
1259.17	41.1458
1259.45	49.4707
1259.72	55.7274
1260	57.814
1260.27	66.2054
1260.55	78.6749
1260.82	83.8337
1261.1	91.0563
1261.37	120.203
1261.65	142.053
1261.92	134.76
1262.2	142.24
1262.48	164.469
1262.75	158.325
1263.02	159.998
1263.3	152.382
1263.58	148.081
1263.85	126.366
1264.13	103.524
1264.4	110.996
1264.68	82.8279
1264.95	78.5207
1265.23	63.8271
1265.5	71.1211
1265.78	54.3652
1266.05	52.229
1266.33	54.2963
1266.6	45.9252
1266.88	48.0113
1267.15	41.7428
1267.43	32.3408
1267.7	46.9918
1267.98	51.193
1268.25	44.9375
1268.53	49.1612
1268.8	44.9993
1269.08	38.7188
1269.35	38.7182
1269.63	46.0476
1269.9	38.6854
1270.18	47.0185
1270.45	32.298
1270.73	45.8639
1271	38.4861
1271.28	33.2127
1271.55	44.6965
1271.83	37.3359
1272.1	38.3722
1272.38	37.3347
1272.65	45.7256
1272.93	47.851
1273.2	33.2
1273.47	37.4039
1273.75	49.9962
1274.03	50.0134
1274.3	40.5924
1274.57	47.9376
1274.85	48.9753
1275.12	42.6593
1275.4	49.9851
1275.67	64.6695
1275.95	57.3327
1276.22	64.6868
1276.5	61.5574
1276.77	71.0164
1277.05	71.0306
1277.32	87.8398
1277.6	73.1605
1277.87	81.5892
1278.14	99.4801
1278.42	104.758
1278.69	124.755
1278.97	136.368
1279.24	157.427
1279.52	199.533
1279.79	256.309
1280.07	302.551
1280.34	377.166
1280.61	532.787
1280.89	743.18
1281.16	1005.17
1281.44	1358.95
1281.71	1843.53
1281.99	2335.36
1282.26	2801.6
1282.53	2988.19
1282.81	2990.64
1283.08	2780.64
1283.36	2414.14
1283.63	1914.73
1283.91	1388.57
1284.18	1016.54
1284.45	730.096
1284.73	504.207
1285	383.126
1285.28	280.9
1285.55	243.853
1285.83	197.408
1286.1	167.927
1286.37	149.02
1286.65	112.153
1286.92	108.952
1287.2	98.4148
1287.47	91.0284
1287.75	82.5764
1288.02	75.1748
1288.29	64.6296
1288.57	65.6761
1288.84	60.4145
1289.12	62.5261
1289.39	64.6501
1289.66	49.9344
1289.94	55.2216
1290.21	45.7693
1290.49	59.4841
1290.76	40.5205
1291.03	36.2924
1291.31	42.6042
1291.58	29.9629
1291.86	42.5999
1292.13	37.3293
1292.4	35.2243
1292.68	40.499
1292.95	35.2268
1293.22	39.4313
1293.5	35.2266
1293.77	34.214
1294.05	26.8876
1294.32	24.8287
1294.59	30.1171
1294.87	28.0118
1295.14	38.5524
1295.42	30.1413
1295.69	25.9736
1295.96	22.8715
1296.24	22.9531
1296.51	28.2874
1296.79	29.3621
1297.06	29.3714
1297.33	25.1381
1297.61	21.956
1297.88	19.8287
1298.15	19.8128
1298.43	16.6254
1298.7	24.0385
1298.97	18.7584
1299.25	13.4712
1299.52	15.5788
1299.79	17.6837
1300.07	21.915
1300.34	19.8326
1300.62	18.7983
1300.89	13.533
1301.16	10.3726
1301.44	13.5484
1301.71	13.5656
1301.98	8.31451
1302.25	17.8478
1302.53	11.5322
1302.8	11.5487
1303.08	6.28008
1303.35	6.2887
1303.62	9.46207
1303.9	8.40465
1304.17	20.032
1304.44	9.49096
1304.72	11.6194
1304.99	13.7467
1305.26	8.47286
1305.54	4.25152
1305.81	13.748
1306.08	10.5789
1306.35	11.6293
1306.63	12.6842
1306.9	9.53103
1307.18	0.05896
1307.45	5.35983
1307.72	7.49223
1308	5.40233
1308.27	-7.23395
1308.54	6.50383
1308.81	6.52023
1309.09	10.7664
1309.36	8.69399
1309.63	1.34422
1309.91	-2.84128
1310.18	1.41145
1310.45	3.54384
1310.73	2.50735
1311	5.6981
1311.27	5.72698
1311.55	3.64661
1311.82	6.84267
1312.09	-1.56793
1312.37	3.75131
1312.64	1.67921
1312.91	1.71231
1313.18	7.01585
1313.46	5.97389
1313.73	-0.335022
1314	1.79758
1314.28	2.87597
1314.55	-5.53894
1314.82	-2.33765
1315.09	-2.29951
1315.37	3.02016
1315.64	-0.106384
1315.91	3.10399
1316.18	-1.07817
1316.46	3.17507
1316.73	1.08985
1317	0.0628281
1317.28	3.26172
1317.55	1.18307
1317.82	3.34117
1318.09	-0.841675
1318.37	-10.3093
1318.64	0.292671
1318.91	-2.8397
1319.18	-3.86039
1319.46	3.56847
1319.73	1.48837
1320	2.57821
1320.28	-0.548271
1320.55	-0.510056
1320.82	0.579407
1321.09	-3.61964
1321.37	-0.430634
1321.64	4.8635
1321.91	4.87502
1322.18	5.95412
1322.46	-1.41542
1322.73	0.72316
1323	2.86123
1323.27	-0.273834
1323.55	-8.68275
1323.82	1.91092
1324.09	5.11958
1324.36	-0.109001
1324.64	0.985245
1324.91	-2.13414
1325.18	-4.20229
1325.45	3.22769
1325.73	-5.18414
1326	0.0943375
1326.27	-0.96125
1326.54	-7.2878
1326.81	1.15236
1327.09	3.29543
1327.36	2.3168
1327.63	4.52382
1327.9	-5.93379
1328.18	4.67733
1328.45	-2.6222
1328.72	-7.8176
1328.99	1.74819
1329.27	-3.47151
1329.54	1.84184
1329.81	-5.48632
1330.08	-2.27569
1330.35	1.98713
1330.63	2.02588
1330.9	-0.0486984
1331.17	1.03666
1331.44	-1.04533
1331.71	2.13589
1331.99	2.1509
1332.26	-5.19599
1332.53	3.25501
1332.8	2.22948
1333.07	-1.95407
1333.35	-0.877502
1333.62	2.30295
1333.89	2.33112
1334.16	-0.790565
1334.43	13.9447
1334.71	-4.92512
1334.98	5.60817
1335.25	-5.89962
1335.52	1.48611
1335.79	-2.67039
1336.07	0.518387
1336.34	3.70744
1336.61	-1.49189
1336.88	4.8447
1337.15	-1.39841
1337.43	0.747574
1337.7	3.94249
1337.97	-5.44154
1338.24	1.93291
1338.51	6.16245
1338.78	5.16099
1339.06	-9.45549
1339.33	-3.12149
1339.6	1.12371
1339.87	8.51599
1340.14	1.25025
1340.42	2.35951
1340.69	3.47009
1340.96	-0.655853
1341.23	-3.73847
1341.5	-1.58633
1341.77	3.70522
1342.04	3.75768
1342.32	6.94697
1342.59	-2.42862
1342.86	10.1701
1343.13	3.93307
1343.4	-2.29115
1343.67	2.99561
1343.95	4.10207
1344.22	7.30247
1344.49	4.23035
1344.76	3.24861
1345.03	9.58016
1345.3	1.26578
1345.58	-4.95879
1345.85	2.39867
1346.12	2.44395
1346.39	-0.650764
1346.66	-1.66691
1346.93	7.7672
1347.2	1.54851
1347.47	6.8053
1347.75	0.592903
1348.02	6.90049
1348.29	0.702972
1348.56	8.05936
1348.83	6.03654
1349.1	0.881477
1349.37	6.14471
1349.65	2.03046
1349.92	2.08466
1350.19	3.18056
1350.46	-0.928719
1350.73	3.29018
1351	6.46207
1351.27	4.43015
1351.54	10.7281
1351.81	3.49645
1352.09	11.8795
1352.36	6.74933
1352.63	3.70975
1352.9	7.95846
1353.17	11.1765
1353.44	8.1396
1353.71	10.3649
1353.98	6.34621
1354.25	18.8399
1354.53	9.41176
1354.8	7.31979
1355.07	6.36243
1355.34	10.5984
1355.61	6.48635
1355.88	8.62176
1356.15	15.9957
1356.42	11.9203
1356.69	3.66512
1356.96	9.96336
1357.24	15.2231
1357.51	18.404
1357.78	19.5047
1358.05	22.6793
1358.32	16.5092
1358.59	13.4542
1358.86	15.5898
1359.13	20.8342
1359.4	20.8914
1359.67	12.6565
1359.94	19.9802
1360.22	14.8484
1360.49	12.8255
1360.76	24.2751
1361.03	18.1176
1361.3	25.4379
1361.57	20.3339
1361.84	18.3356
1362.11	21.5147
1362.38	22.6162
1362.65	19.5764
1362.92	31.0344
1363.19	32.1439
1363.46	32.2283
1363.73	36.4667
1364	36.5585
1364.28	31.4709
1364.55	45.0145
1364.82	29.5481
1365.09	34.7945
1365.36	29.6767
1365.63	31.8036
1365.9	28.753
1366.17	35.0183
1366.44	34.0392
1366.71	30.9903
1366.98	32.0743
1367.25	26.9499
1367.52	37.3497
1367.79	50.8538
1368.06	55.0842
1368.33	79.9818
1368.6	155.532
1368.87	181.471
1369.15	165.026
1369.41	107.226
1369.68	83.5368
1369.95	56.7186
1370.23	46.4476
1370.5	46.5154
1370.77	32.099
1371.04	45.5993
1371.31	43.5934
1371.58	37.4467
1371.85	37.4922
1372.12	44.7557
1372.39	48.9204
1372.66	35.5544
1372.93	45.9188
1373.2	52.1663
1373.47	55.3246
1373.74	48.1768
1374.01	56.4909
1374.28	58.6236
1374.55	55.6063
1374.82	54.6506
1375.09	62.9651
1375.36	51.701
1375.63	54.8785
1375.9	59.0979
1376.17	65.3591
1376.44	63.3895
1376.71	68.5891
1376.98	57.3119
1377.25	72.7942
1377.52	68.7035
1377.79	80.1244
1378.06	74.0698
1378.33	61.8525
1378.6	74.3639
1378.87	80.7106
1379.14	85.9745
1379.41	91.2079
1379.68	99.518
1379.95	109.885
1380.22	98.597
1380.49	106.851
1380.76	111.941
1381.03	127.375
1381.3	125.33
1381.57	131.617
1381.84	151.188
1382.11	167.616
1382.38	184.022
1382.65	197.351
1382.92	216.844
1383.19	232.212
1383.46	270.169
1383.73	320.408
1384	403.478
1384.27	478.337
1384.54	614.799
1384.81	780.024
1385.08	1080.74
1385.34	1496.6
1385.61	2236.16
1385.88	3349.57
1386.15	4886.36
1386.42	6416.08
1386.69	7044
1386.96	6413.07
1387.23	4966.85
1387.5	3279.77
1387.77	2057.52
1388.04	1362.72
1388.31	873.451
1388.58	651.569
1388.85	503.139
1389.12	398.23
1389.39	330.843
1389.66	271.406
1389.93	221.213
1390.2	199.645
1390.46	184.139
1390.73	172.854
1391	145.247
1391.27	131.923
1391.54	133.016
1391.81	122.836
1392.08	113.658
1392.35	101.406
1392.62	112.72
1392.89	95.3693
1393.16	100.552
1393.43	94.4763
1393.7	89.4282
1393.97	85.406
1394.23	79.3387
1394.5	83.5074
1394.77	71.305
1395.04	75.4773
1395.31	69.4378
1395.58	56.2401
1395.85	66.575
1396.12	58.4774
1396.39	61.6299
1396.66	72.9631
1396.93	70.9857
1397.2	60.821
1397.46	60.8826
1397.73	53.7848
1398	58.9731
1398.27	58.0337
1398.54	64.2642
1398.81	55.1571
1399.08	60.3653
1399.35	54.3179
1399.62	57.4925
1399.89	58.6134
1400.16	65.8745
1400.42	64.9347
1400.69	65.0367
1400.96	55.938
1401.23	56.0367
1401.5	61.2366
1401.77	54.1671
1402.04	63.4675
1402.31	66.6675
1402.58	66.824
1402.84	61.8573
1403.11	66.1004
1403.38	71.3575
1403.65	79.6746
1403.92	78.7338
1404.19	78.7893
1404.46	89.0545
1404.73	85.0567
1404.99	91.2833
1405.26	104.685
1405.53	109.868
1405.8	119.15
1406.07	140.734
1406.34	148.986
1406.61	160.324
1406.87	191.138
1407.14	206.608
1407.41	242.589
1407.68	268.327
1407.95	302.263
1408.22	286.989
1408.49	296.321
1408.76	297.451
1409.02	255.516
1409.29	206.401
1409.56	167.53
1409.83	144.039
1410.1	122.591
1410.37	94.9773
1410.63	88.876
1410.9	75.5891
1411.17	70.5054
1411.44	55.1859
1411.71	59.3475
1411.98	52.2427
1412.25	46.1743
1412.51	44.2214
1412.78	41.2579
1413.05	35.2477
1413.32	31.3329
1413.59	33.5235
1413.86	32.5088
1414.12	33.4981
1414.39	30.5227
1414.66	25.5315
1414.93	33.8642
1415.2	27.7799
1415.47	24.7836
1415.73	24.8651
1416	20.8412
1416.27	21.9553
1416.54	26.1504
1416.81	19.0502
1417.07	20.1653
1417.34	15.1187
1417.61	19.3165
1417.88	18.3774
1418.15	14.3512
1418.42	18.543
1418.68	15.5428
1418.95	27.9582
1419.22	20.8448
1419.49	18.8706
1419.76	16.8865
1420.02	20.0349
1420.29	18.0443
1420.56	8.86661
1420.83	16.1201
1421.1	23.3702
1421.36	19.3285
1421.63	16.3217
1421.9	19.4832
1422.17	10.3407
1422.44	18.6574
1422.7	20.8146
1422.97	14.7656
1423.24	14.9022
1423.51	14.0115
1423.77	19.0649
1424.04	16.9397
1424.31	22.1634
1424.58	11.9227
1424.85	15.0737
1425.11	21.3191
1425.38	4.01413
1425.65	17.4317
1425.92	5.19228
1426.19	19.6512
1426.45	7.41272
1426.72	15.6831
1426.99	13.6905
1427.26	10.6731
1427.52	11.7549
1427.79	16.9267
1428.06	13.9069
1428.33	16.0198
1428.59	13.0188
1428.86	10.0231
1429.13	6.00629
1429.4	3.01371
1429.67	9.24016
1429.93	9.32413
1430.2	10.4362
1430.47	6.42819
1430.74	10.6149
1431	10.7083
1431.27	1.57715
1431.54	6.80001
1431.81	9.96314
1432.07	11.0631
1432.34	0.8633
1432.61	6.05371
1432.87	5.09206
1433.14	6.17361
1433.41	7.24983
1433.68	5.24805
1433.95	7.34716
1434.21	8.42908
1434.48	3.37523
1434.75	5.52173
1435.01	6.62998
1435.28	-0.468597
1435.55	10.8752
1435.82	6.84618
1436.08	5.89045
1436.35	5.95789
1436.62	6.02481
1436.89	6.09075
1437.15	6.15577
1437.42	3.1484
1437.69	3.21759
1437.95	5.33002
1438.22	1.30067
1438.49	2.39764
1438.76	8.62128
1439.02	4.59841
1439.29	4.66987
1439.56	5.76645
1439.82	7.89348
1440.09	-5.3483
1440.36	2.93456
1440.63	4.03497
1440.89	7.18334
1441.16	4.17609
1441.43	0.145111
1441.69	2.26008
1441.96	4.37025
1442.23	3.40794
1442.49	6.56229
1442.76	4.58055
1443.03	4.65832
1443.3	-0.409199
1443.56	0.675022
1443.83	-0.290688
1444.1	-0.22916
1444.36	1.88546
1444.63	2.98027
1444.9	4.0864
1445.16	6.2164
1445.43	1.16918
1445.7	9.43866
1445.97	1.29148
1446.23	-0.699242
1446.5	4.4907
1446.77	5.57711
1447.03	4.61198
1447.3	2.62129
1447.57	6.78246
1447.83	4.78912
1448.1	0.747002
1448.37	2.86076
1448.63	-0.142551
1448.9	5.05946
1449.17	3.07458
1449.43	0.0599594
1449.7	-1.93194
1449.97	0.175766
1450.23	1.25582
1450.5	2.33538
1450.77	8.5436
1451.03	1.4269
1451.3	3.53468
1451.57	5.64166
1451.83	3.64846
1452.1	2.68062
1452.37	2.73799
1452.63	-1.30122
1452.9	6.95645
1453.17	-2.20163
1453.43	0.938396
1453.7	10.2265
1453.97	3.11326
1454.23	4.19448
1454.5	6.30085
1454.77	0.212517
1455.03	4.37086
1455.3	-5.81837
1455.56	-2.68817
1455.83	0.445549
1456.1	-0.51223
1456.36	0.575481
1456.63	-3.4661
1456.9	3.76251
1457.16	5.86147
1457.43	-0.236206
1457.7	2.89177
1457.96	0.897232
1458.23	-2.12058
1458.49	3.05861
1458.76	3.11666
1459.03	0.102669
1459.29	4.2598
1459.56	-1.82957
1459.82	1.30129
1460.09	-0.693653
1460.36	1.40825
1460.62	-3.66161
1460.89	-0.536228
1461.16	4.63544
1461.42	-5.5571
1461.69	7.80458
1461.95	0.684788
1462.22	0.731709
1462.49	-0.245743
1462.75	-1.22382
1463.02	-0.155819
1463.28	-1.13506
1463.55	-0.0691833
1463.82	2.01969
1464.08	0.026535
1464.35	5.2068
1464.61	-0.856663
1464.88	2.28203
1465.15	1.33251
1465.41	0.32692
1465.68	-1.74392
1465.94	-0.705769
1466.21	2.40319
1466.48	-0.593472
1466.74	-2.58762
1467.01	-3.57472
1467.27	-2.50895
1467.54	-7.5554
1467.8	1.67452
1468.07	-3.37849
1468.34	0.750278
1468.6	1.8196
1468.87	-4.25174
1469.13	-4.20432
1469.4	0.940712
1469.67	3.0242
1469.93	-3.0529
1470.2	-1.99403
1470.46	-5.01048
1470.73	-2.92907
1470.99	-1.86645
1471.26	-1.82127
1471.53	-0.760166
1471.79	-0.720238
1472.06	1.35839
1472.32	0.384415
1472.59	1.44832
1472.85	-7.66987
1473.12	2.55801
1473.39	-2.48929
1473.65	-1.43059
1473.92	-1.39033
1474.18	-2.3668
1474.45	0.729267
1474.71	3.82788
1474.98	-2.22882
1475.24	0.872704
1475.51	-4.17064
1475.78	0.962238
1476.04	1.00322
1476.31	-0.992985
1476.57	-4.00492
1476.84	0.105686
1477.1	1.16039
1477.37	5.26563
1477.63	-0.796478
1477.9	0.262615
1478.16	3.35577
1478.43	1.36018
1478.69	0.378246
1478.96	-2.63448
1479.22	-2.59756
1479.49	-2.56168
1479.76	-2.52669
1480.02	-1.47718
1480.29	-3.47474
1480.55	-3.44653
1480.82	-5.44567
1481.08	0.676983
1481.35	2.74361
1481.61	-0.266201
1481.88	-2.25074
1482.14	0.840248
1482.41	1.90323
1482.67	-4.13836
1482.94	-7.13832
1483.2	0.00837708
1483.47	-1.97769
1483.73	0.0953751
1484	-0.880615
1484.26	1.18784
1484.53	2.22505
1484.79	2.24009
1485.06	-3.84729
1485.32	-2.84621
1485.59	-0.803017
1485.85	-1.80625
1486.12	-2.69223
1486.38	5.46341
1486.65	1.46314
1486.91	-1.58174
1487.18	3.54138
1487.44	1.55827
1487.71	0.569691
1487.97	-1.42899
1488.24	0.627567
1488.5	0.657288
1488.77	-0.327869
1489.03	-2.32574
1489.3	-4.32086
1489.56	1.78171
1489.83	2.82529
1490.09	2.8576
1490.36	0.869026
1490.62	-3.1433
1490.89	0.932827
1491.15	1.97061
1491.42	-0.0254936
1491.68	-4.03928
1491.95	-0.973885
1492.21	-0.940212
1492.48	-3.93802
1492.74	0.138313
1493	1.18025
1493.27	-4.85361
1493.53	2.25578
1493.8	5.3182
1494.06	-1.72669
1494.33	-5.73716
1494.59	-3.6809
1494.86	0.398125
1495.12	0.428238
1495.39	-0.557201
1495.65	0.473549
1495.92	0.490662
1496.18	-5.54868
1496.45	-0.475422
1496.71	-0.450054
1496.97	-0.424152
1497.24	-1.40819
1497.5	-1.37819
1497.77	6.72579
1498.03	-5.35741
1498.3	1.73575
1498.56	-0.252659
1498.82	-4.25925
1499.09	-2.21026
1499.35	1.85768
1499.62	-3.15759
1499.88	-0.0974655
1500.15	0.944016
1500.41	-2.05487
1500.68	1.00188
1500.94	1.02866
1501.2	3.07424
1501.47	4.10699
1501.73	-0.919731
1502	-2.91296
1502.26	2.15894
1502.52	-3.87029
1502.79	5.23439
1503.05	2.22557
1503.32	2.24418
1503.58	-1.76803
1503.85	0.268108
1504.11	-1.72252
1504.37	3.3489
1504.64	0.351242
1504.9	6.4277
1505.17	2.41752
1505.43	0.42202
1505.7	0.441288
1505.96	-0.552597
1506.22	0.466427
1506.49	2.50334
1506.75	1.51917
1507.02	2.55268
1507.28	-3.46318
1507.54	3.61577
1507.81	0.618366
1508.07	2.65712
1508.34	-2.36042
1508.6	-2.33899
1508.86	0.707703
1509.13	4.76254
1509.39	3.77843
1509.66	1.78529
1509.92	1.80771
1510.18	1.83432
1510.45	2.86695
1510.71	0.8661
1510.98	-2.14169
1511.24	-0.113846
1511.5	0.90427
1511.77	1.91681
1512.03	4.93536
1512.29	0.912472
1512.56	2.92458
1512.82	-0.0852547
1513.08	0.929924
1513.35	0.941704
1513.61	-1.05309
1513.88	1.97553
1514.14	-0.00329208
1514.4	1.03552
1514.67	1.05894
1514.93	3.08307
1515.2	2.08918
1515.46	-0.913921
1515.72	-1.90765
1515.99	1.11086
1516.25	5.13057
1516.51	1.12887
1516.78	-0.861874
1517.04	-0.846447
1517.3	1.17475
1517.57	-2.81862
1517.83	2.21306
1518.09	-2.7798
1518.36	3.26152
1518.62	2.27819
1518.88	-2.71667
1519.15	1.31496
1519.41	0.332169
1519.67	0.352108
1519.94	0.3708
1520.2	-0.616734
1520.47	5.41569
1520.73	-3.59898
1520.99	-2.57771
1521.26	1.45497
1521.52	0.470936
1521.78	-0.515305
1522.05	-1.50444
1522.31	-3.49871
1522.57	0.525719
1522.84	3.54573
1523.1	3.5566
1523.36	0.556568
1523.62	0.560181
1523.89	0.560139
1524.15	-2.44068
1524.41	0.571373
1524.68	-1.42374
1524.94	-2.41651
1525.2	-2.39854
1525.47	-0.380054
1525.73	1.63799
1525.99	0.655579
1526.26	1.67778
1526.52	0.699234
1526.78	-3.2891
1527.05	2.74096
1527.31	-2.25885
1527.57	-1.24873
1527.84	-0.236103
1528.1	4.78379
1528.36	1.78683
1528.63	-1.21108
1528.89	-2.20453
1529.15	-0.192165
1529.41	-1.18379
1529.68	1.83229
1529.94	0.839802
1530.2	1.8468
1530.47	0.855167
1530.73	-2.13459
1530.99	-0.113087
1531.25	2.91088
1531.52	0.923771
1531.78	-0.0667305
1532.04	-3.0644
1532.31	-0.0469971
1532.57	-6.05269
1532.83	-0.026886
1533.09	-1.00931
1533.36	0.0159225
1533.62	0.0371742
1533.88	6.07059
1534.15	2.07098
1534.41	1.07706
1534.67	-0.921841
1534.94	1.09078
1535.2	3.10182
1535.46	1.10174
1535.72	1.10357
1535.99	5.10246
1536.25	4.09678
1536.51	2.09309
1536.77	1.08707
1537.04	1.08159
1537.3	2.07819
1537.56	-0.920364
1537.82	2.08017
1538.09	1.08825
1538.35	0.0883598
1538.61	1.08446
1538.87	5.08677
1539.14	1.09201
1539.4	1.10952
1539.66	-0.862846
1539.92	-3.83333
1540.19	1.19793
1540.45	3.22464
1540.71	-1.76382
1540.97	-0.745014
1541.24	-2.74024
1541.5	0.25975
1541.76	2.26908
1542.02	7.27552
1542.29	0.257732
1542.55	-3.75192
1542.81	-2.75266
1543.07	8.25809
1543.34	0.24641
1543.6	-0.757622
1543.86	1.23715
1544.12	-0.770149
1544.39	-1.76337
1544.65	-2.7563
1544.91	-1.74398
1545.17	3.27461
1545.43	3.28806
1545.7	0.304649
1545.96	-2.68731
1546.22	-0.675232
1546.48	0.334885
1546.74	-3.66959
1547.01	-0.658619
1547.27	-0.650463
1547.53	2.36371
1547.79	1.36967
1548.06	-0.638306
1548.32	-0.65284
1548.58	2.35473
1548.84	-2.64655
1549.1	0.371727
1549.37	1.34244
1549.63	-2.69162
1549.89	-3.6953
1550.15	2.32622
1550.42	4.37125
1550.68	3.43229
1550.94	-0.536564
1551.2	1.50988
1551.46	5.5034
1551.73	3.50183
1551.99	-5.53879
1552.25	4.49002
1552.51	4.51031
1552.77	2.52011
1553.03	0.508587
1553.3	2.50825
1553.56	2.48225
1553.82	2.478
1554.08	1.47346
1554.34	2.47043
1554.61	6.47144
1554.87	0.445206
1555.13	8.44903
1555.39	7.44296
1555.65	2.43272
1555.91	3.43534
1556.18	1.43535
1556.44	3.44029
1556.7	0.430286
1556.96	-0.570107
1557.22	3.4398
1557.48	-1.56617
1557.75	-0.563187
1558.01	0.43708
1558.27	4.43708
1558.53	1.42097
1558.79	1.41192
1559.06	4.40148
1559.32	1.38818
1559.58	1.37828
1559.84	-0.629665
1560.1	1.36341
1560.36	-2.64038
1560.63	0.354244
1560.89	-3.64659
1561.15	3.34633
1561.41	-0.651852
1561.67	1.34879
1561.93	-1.64378
1562.19	-0.635303
1562.46	-2.62592
1562.72	-3.62665
1562.98	1.37135
1563.24	-0.632744
1563.5	-0.632149
1563.76	-1.63673
1564.02	2.35965
1564.29	2.37177
1564.55	0.383884
1564.81	0.386936
1565.07	5.38647
1565.33	0.360947
1565.59	1.2942
1565.85	-3.77747
1566.11	1.15406
1566.38	0.305737
1566.64	0.347324
1566.9	-2.67175
1567.16	-4.69345
1567.42	3.32727
1567.68	2.35928
1567.94	0.347546
1568.2	0.319897
1568.47	-1.6776
1568.73	-2.67514
1568.99	0.324612
1569.25	-0.681263
1569.51	3.30119
1569.77	-0.707085
1570.03	2.28836
1570.29	0.289841
1570.55	-0.711582
1570.82	1.28484
1571.08	2.28053
1571.34	-0.722271
1571.6	3.26852
1571.86	-1.73632
1572.12	-2.74453
1572.38	5.24237
1572.64	3.23631
1572.9	2.22674
1573.17	-1.77602
1573.43	0.212257
1573.69	-3.78978
1573.95	1.19207
1574.21	-0.806805
1574.47	-0.80415
1574.73	0.198616
1574.99	2.2008
1575.25	0.208778
1575.51	0.213566
1575.78	6.21224
1576.04	-4.78296
1576.3	-0.792004
1576.56	-0.796761
1576.82	2.19264
1577.08	1.1776
1577.34	-1.83642
1577.6	2.13949
1577.86	4.11751
1578.12	-0.886967
1578.38	-0.901859
1578.64	2.07815
1578.9	4.06523
1579.17	-1.92134
1579.43	-2.92315
1579.69	-1.93058
1579.95	-1.93332
1580.21	-1.93312
1580.47	2.05338
1580.73	-1.93961
1580.99	-2.94307
1581.25	1.03647
1581.51	1.02559
1581.77	1.01572
1582.03	0.00662231
1582.29	-1.9989
1582.55	-0.0139542
1582.81	-1.01788
1583.07	-1.02581
1583.33	2.95127
1583.59	0.952698
1583.85	2.93849
1584.11	-3.04639
1584.38	-0.0640755
1584.64	-0.0663757
1584.9	-2.0616
1585.16	-1.0696
1585.42	-4.06382
1585.68	1.90518
1585.94	-2.08553
1586.2	-2.09445
1586.46	0.87907
1586.72	3.85064
1586.98	0.85186
1587.24	-2.14431
1587.5	1.82644
1587.76	-0.1726
1588.02	4.79434
1588.28	2.79888
1588.54	1.80108
1588.8	-0.190788
1589.06	2.79428
1589.32	0.802292
1589.58	-2.18557
1589.84	-0.197273
1590.1	1.78915
1590.36	-0.208359
1590.62	-1.20734
1590.88	-2.20527
1591.14	-2.20831
1591.4	-1.21966
1591.66	0.765591
1591.92	1.7526
1592.18	2.73806
1592.44	-1.25896
1592.7	-1.27643
1592.96	4.67865
1593.22	3.67113
1593.48	-1.32207
1593.74	-0.348415
1594	1.61745
1594.26	-2.37233
1594.52	-1.39023
1594.78	1.58295
1595.04	-1.39922
1595.3	-0.405216
1595.56	1.58036
1595.82	-0.413643
1596.08	2.54308
1596.34	-1.43732
1596.6	0.542351
1596.86	-0.457287
1597.12	5.49689
1597.38	2.51306
1597.64	-2.45739
1597.9	-0.474255
1598.16	-0.481964
1598.42	5.46809
1598.68	-2.49189
1598.94	1.46381
1599.2	1.44769
1599.46	-3.52886
1599.72	-3.54136
1599.98	1.40702
1600.24	-0.590401
1600.5	0.388607
1600.76	3.34946
1601.02	-2.61581
1601.28	-0.651108
1601.54	4.28391
1601.8	-4.65051
1602.06	0.284832
1602.32	-1.7099
1602.58	3.22533
1602.84	1.23051
1603.1	-0.764442
1603.36	0.20966
1603.62	-3.76008
1603.88	-4.76018
1604.14	-1.80374
1604.4	-4.77785
1604.66	-0.829517
1604.92	-1.82439
1605.17	-1.83113
1605.43	0.140045
1605.69	5.07838
1605.95	5.07461
1606.21	-3.82894
1606.47	1.11393
1606.73	-3.83475
1606.99	-1.85975
1607.25	1.1077
1607.51	0.118767
1607.77	0.0479927
1608.03	1.88476
1608.29	-1.84158
1608.55	5.73486
1608.81	0.000995636
1609.07	0.202946
1609.32	0.0973358
1609.58	2.04709
1609.84	1.71218
1610.1	2.78133
1610.36	-2.96263
1610.62	2.85349
1610.88	-4.05863
1611.14	1.26004
1611.4	-1.71203
1611.66	-0.747116
1611.92	0.752705
1612.18	-0.84248
1612.44	-2.85125
1612.69	-1.27836
1612.95	0.987049
1613.21	2.27131
1613.47	1.21861
1613.73	-1.66485
1613.99	-0.410236
1614.25	1.96558
1614.51	1.08397
1614.77	1.597
1615.03	-3.17776
1615.29	0.584435
1615.54	2.91348
1615.8	-2.21792
1616.06	0.639027
1616.32	2.2123
1616.58	0.559776
1616.84	0.953819
1617.1	-0.907913
1617.36	-1.25352
1617.62	-2.25492
1617.88	1.27155
1618.13	-0.124084
1618.39	0.489445
1618.65	-0.224586
1618.91	0.900204
1619.17	0.353481
1619.43	0.257149
1619.69	-0.677601
1619.95	0.320274
1620.2	-0.648262
1620.46	1.1188
1620.72	-0.73719
1620.98	-1.08916
1621.24	0.384083
1621.5	1.31984
1621.76	1.12782
1622.02	-2.22504
1622.27	-1.65113
1622.53	1.22606
1622.79	0.249268
1623.05	-1.62624
1623.31	0.793758
1623.57	2.45861
1623.83	1.75266
1624.09	-1.32454
1624.34	0.981449
1624.6	2.96167
1624.86	1.32397
1625.12	-0.393208
1625.38	-0.33651
1625.64	-0.0487556
1625.9	0.105721
1626.15	1.31285
1626.41	3.24807
1626.67	2.14469
1626.93	1.01484
1627.19	1.21201
1627.45	-0.573364
1627.7	1.03484
1627.96	2.16203
1628.22	-1.36842
1628.48	1.35755
1628.74	4.87301
1629	-0.0357437
1629.26	-0.399246
1629.51	3.59287
1629.77	0.583626
1630.03	1.74738
1630.29	1.53089
1630.55	1.6556
1630.81	-1.33678
1631.06	0.169044
1631.32	1.29073
1631.53	2.86213
1631.79	-0.0943947
1632.05	-0.0946541
1632.31	2.86118
1632.57	-4.04577
1632.84	0.884857
1633.1	1.88253
1633.36	-0.1091
1633.62	-1.11889
1633.88	1.82666
1634.14	1.82523
1634.4	2.81015
1634.66	1.81992
1634.93	-0.156986
1635.19	0.821701
1635.45	-2.14307
1635.71	0.805302
1635.97	0.79594
1636.23	-1.18491
1636.49	0.775169
1636.75	0.764404
1637.02	2.72335
1637.28	-2.21344
1637.54	-0.256226
1637.8	-0.265713
1638.06	3.66523
1638.32	1.68653
1638.58	-0.292259
1638.84	-2.2697
1639.1	-4.24417
1639.37	0.671543
1639.63	0.6651
1639.89	-3.2786
1640.15	1.6365
1640.41	2.61346
1640.67	-0.344395
1640.93	-3.29739
1641.19	-4.28373
1641.46	3.58921
1641.72	2.59601
1641.98	0.61697
1642.24	-0.375847
1642.5	-0.383492
1642.76	1.57797
1643.02	-0.398087
1643.28	-2.37366
1643.54	-0.411572
1643.8	-2.3867
1644.06	-0.426643
1644.33	3.50026
1644.59	2.50469
1644.85	-1.44107
1645.11	1.50359
1645.37	-2.43453
1645.63	1.50029
1645.89	2.48166
1646.15	0.50856
1646.41	-0.48439
1646.67	1.47383
1646.93	-3.45428
1647.19	4.40806
1647.46	-2.48664
1647.72	0.455048
1647.98	-0.536854
1648.24	4.37421
1648.5	4.37057
1648.76	-0.545815
1649.02	4.37486
1649.28	-1.51639
1649.54	-0.5303
1649.8	-1.52355
1650.06	-1.53234
1650.32	0.431091
1650.58	-0.547935
1650.85	0.440319
1651.11	1.4271
1651.37	1.42928
1651.63	4.38535
1651.89	-2.51533
1652.15	3.39278
1652.41	-0.55368
1652.67	-2.528
1652.93	0.42028
1653.19	-0.573956
1653.45	-2.55093
1653.71	-3.54067
1653.97	-1.57317
1654.23	-0.588928
1654.49	3.35072
1654.75	-1.57973
1655.01	0.389328
1655.27	1.37519
1655.53	-1.57958
1655.8	-0.587936
1656.06	-1.56641
1656.32	1.39789
1656.57	4.36038
1656.84	0.411404
1657.1	-0.578239
1657.36	2.378
1657.62	-2.56449
1657.88	1.3755
1658.14	-5.53893
1658.4	2.34912
1658.66	1.35442
1658.92	-1.6143
1659.18	-0.636753
1659.44	-1.63204
1659.7	-3.61304
1659.96	-3.62157
1660.22	-3.63223
1660.48	-0.675865
1660.74	-2.64708
1661	0.312695
1661.26	4.26066
1661.52	-2.64104
1661.78	-1.65118
1662.04	2.29534
1662.3	1.30786
1662.56	-0.700897
1662.82	-2.6148
1663.08	5.32711
1663.34	-2.6056
1663.6	2.32864
1663.86	1.32778
1664.12	-3.68057
1664.38	1.28452
1664.64	-3.64598
1664.9	3.26511
1665.16	2.29343
1665.42	-2.64238
1665.68	3.24128
1665.94	2.21621
1666.2	-2.63335
1666.46	1.32613
1666.72	-0.658134
1666.98	0.277935
1667.24	2.13314
1667.5	-3.6824
1667.76	0.255859
1668.02	1.23403
1668.28	3.20097
1668.54	1.21874
1668.8	-1.74277
1669.06	0.243828
1669.32	2.23661
1669.58	-3.68814
1669.84	-0.72673
1670.1	-0.727917
1670.36	1.24144
1670.62	-0.736336
1670.88	4.2203
1671.14	-1.7001
1671.4	-3.68276
1671.66	0.265999
1671.92	0.262207
1672.18	-6.65713
1672.44	-2.70292
1672.69	2.23861
1672.95	-0.729187
1673.21	3.22264
1673.47	2.23318
1673.73	0.255619
1673.99	-0.732552
1674.25	1.24672
1674.51	-2.70581
1674.77	-1.7146
1675.03	3.23382
1675.29	3.2394
1675.55	-2.69354
1675.81	1.26609
1676.07	0.275318
1676.33	-3.68538
1676.59	-1.70659
1676.85	-1.7064
1677.11	3.24175
1677.37	-1.70901
1677.63	-0.722687
1677.89	-3.69605
1678.14	-2.71249
1678.4	1.23689
1678.66	2.21666
1678.92	-0.75806
1679.18	2.20209
1679.44	0.219051
1679.7	-0.77367
1679.96	-0.778374
1680.22	-0.783035
1680.48	-2.76327
1680.74	3.16129
1681	-0.795914
1681.26	-2.77592
1681.52	0.185337
1681.78	-4.7558
1682.03	-3.76907
1682.29	-0.806236
1682.55	-0.806747
1682.81	2.15706
1683.07	-0.808971
1683.33	-2.78643
1683.59	-0.811787
1683.85	0.175392
1684.11	-1.80189
1684.37	-3.78019
1684.63	-4.77321
1684.89	0.161469
1685.14	0.159153
1685.4	1.145
1685.66	0.156441
1685.92	-2.80646
1686.18	0.155834
1686.44	-0.831154
1686.7	0.158993
1686.96	-2.79733
1687.22	1.15736
1687.48	-2.79363
1687.73	-0.820564
1687.99	-3.78785
1688.25	-3.79154
1688.51	-2.80703
1688.77	-3.79798
1689.03	-2.8153
1689.29	1.12608
1689.55	-0.853779
1689.81	-2.83315
1690.06	3.07979
1690.32	1.09877
1690.58	-0.875786
1690.84	-2.8405
1691.1	-0.862774
1691.36	-4.80614
1691.62	3.08982
1691.88	0.133759
1692.13	-0.849594
1692.39	-5.78382
1692.65	2.11024
1692.91	-1.84174
1693.17	2.09871
1693.43	-4.81358
1693.69	-1.86295
1693.95	1.08505
1694.2	1.07842
1694.46	1.07202
1694.72	-0.905186
1694.98	-0.90942
1695.24	-2.87914
1695.5	-1.89129
1695.76	-0.903389
1696.01	1.06995
1696.27	-1.88239
1696.53	0.0940514
1696.79	4.04044
1697.05	-1.87182
1697.31	-1.87387
1697.57	-0.893738
1697.82	-2.87134
1698.08	1.06014
1698.34	-0.915333
1698.6	-0.92004
1698.86	-1.9086
1699.12	0.0562439
1699.38	1.03899
1699.63	-0.928448
1699.89	-1.90915
1700.15	-1.90742
1700.41	-3.87347
1700.67	1.04151
1700.92	-3.8776
1701.18	-2.89368
1701.44	-2.89394
1701.7	-0.927952
1701.96	3.00195
1702.22	2.01276
1702.47	2.99089
1702.73	-0.946537
1702.99	-1.93377
1703.25	1.99673
1703.51	-0.950356
1703.77	2.97955
1704.02	-0.952137
1704.28	1.99498
1704.54	1.01783
1704.8	-2.90591
1705.06	0.0451393
1705.32	-1.91977
1705.57	2.01047
1705.83	-0.935154
1706.09	2.0147
1706.35	1.02862
1706.61	-2.90575
1706.86	-2.91112
1707.12	-3.89871
1707.38	3.9477
1707.64	-0.964806
1707.9	-4.89568
1708.16	0.00056076
1708.41	3.91333
1708.67	3.90333
1708.93	2.91181
1709.19	-2.97443
1709.44	-2.97928
1709.7	1.91355
1709.96	-2.98127
1710.22	1.91546
1710.48	-1.99704
1710.73	1.92259
1710.99	-0.029808
1711.25	5.85345
1711.51	-0.0158386
1711.77	-0.989376
1712.02	0.974922
1712.28	0.978268
1712.54	-3.91984
1712.8	0.969845
1713.06	1.93661
1713.31	2.90184
1713.57	-0.0440865
1713.83	-2.00888
1714.09	-2.99553
1714.34	1.88649
1714.6	-1.04575
1714.86	-1.04586
1715.12	1.88541
1715.38	-1.04222
1715.63	-0.0563965
1715.89	-0.045517
1716.15	2.88867
1716.41	2.88873
1716.66	-4.9284
1716.92	6.78826
1717.18	-2.98403
1717.44	1.88815
1717.69	2.85149
1717.95	1.8609
1718.21	5.74694
1718.47	2.81175
1718.72	2.80268
1718.98	2.79777
1719.24	-0.124451
1719.5	0.851978
1719.75	0.855114
1720.01	-3.03769
1720.27	-1.08451
1720.53	-2.05318
1720.78	-1.07921
1721.04	2.81197
1721.3	-3.03358
1721.56	0.855118
1721.81	-0.121128
1722.07	1.81971
1722.33	0.842033
1722.59	1.80859
1722.84	3.74662
1723.1	0.82658
1723.36	2.76545
1723.62	-0.150703
1723.87	-0.150875
1724.13	1.79477
1724.39	1.79559
1724.64	-0.144222
1724.9	2.76641
1725.16	-3.06257
1725.42	-0.160709
1725.67	6.61938
1725.93	2.73006
1726.19	6.60156
1726.45	1.7554
1726.7	1.76223
1726.96	-1.14357
1727.22	2.73119
1727.47	1.75341
1727.73	1.75668
1727.99	-1.13662
1728.24	2.7403
1728.5	-2.1045
1728.76	0.79192
1729.02	1.71374
1729.27	-0.268986
1729.53	6.46922
1729.79	-1.2254
1730.05	-0.237637
1730.3	1.71273
1730.56	0.729179
1730.82	0.7239
1731.07	9.4124
1731.33	3.66872
1731.59	0.776497
1731.84	1.74812
1732.1	1.75182
1732.36	-0.178596
1732.61	0.788879
1732.87	6.58674
1733.13	5.619
1733.39	-0.180038
1733.64	0.779568
1733.9	0.770107
1734.16	7.51316
1734.41	7.50494
1734.67	5.56808
1734.93	1.70436
1735.18	1.6972
1735.44	3.61677
1735.7	-0.241112
1735.95	5.53293
1736.21	1.68111
1736.47	4.57006
1736.72	0.721172
1736.98	-1.20327
1737.24	1.68348
1737.49	1.68299
1737.75	4.5686
1738.01	8.41553
1738.26	3.60491
1738.52	4.56308
1738.78	1.67617
1739.03	0.712467
1739.29	3.59119
1739.55	-1.21728
1739.8	1.65545
1740.06	7.40213
1740.32	1.63358
1740.57	-2.21075
1740.83	1.61845
1741.09	7.36476
1741.34	2.56964
1741.6	-2.22321
1741.86	2.56392
1742.11	-0.309875
1742.37	6.39394
1742.63	1.60955
1742.88	5.44114
1743.14	0.65588
1743.4	4.48757
1743.65	2.57733
1743.91	0.664661
1744.16	1.61948
1744.42	3.53181
1744.68	5.44444
1744.93	3.53381
1745.19	-0.287056
1745.45	3.54483
1745.7	1.63703
1745.96	1.64041
1746.22	6.42285
1746.47	7.37605
1746.73	0.67907
1746.98	3.54063
1747.24	3.53709
1747.5	1.62125
1747.75	-1.24646
1748.01	2.56978
1748.27	5.43457
1748.52	3.52987
1748.78	1.62661
1749.03	-0.275795
1749.29	4.50529
1749.55	3.56038
1749.8	2.61705
1750.06	4.54002
1750.32	-0.222443
1750.57	3.61332
1750.83	1.71528
1751.08	9.37071
1751.34	5.55724
1751.6	5.56384
1751.85	4.60823
1752.11	2.69126
1752.36	6.50671
1752.62	-0.183067
1752.88	0.769962
1753.13	4.58622
1753.39	1.71954
1753.64	1.71813
1753.9	9.35056
1754.15	5.53304
1754.41	4.57592
1754.67	4.57276
1754.92	7.43249
1755.18	4.5723
1755.43	8.38602
1755.69	4.57391
1755.95	6.47865
1756.2	1.71199
1756.46	-2.10116
1756.71	1.70449
1756.97	3.60215
1757.23	1.69234
1757.48	5.49264
1757.74	6.44453
1757.99	1.68966
1758.25	10.2578
1758.5	5.51946
1758.76	6.48027
1759.02	8.38995
1759.27	7.44447
1759.53	6.49904
1759.78	6.50674
1760.04	4.60841
1760.3	8.41728
1760.55	5.56478
1760.81	9.37206
1761.06	10.3239
1761.32	1.76219
1761.57	4.61328
1761.83	5.5627
1762.08	4.61271
1762.34	6.51646
1762.6	5.56989
1762.85	4.63156
1763.11	2.73986
1763.36	2.74626
1763.62	6.55342
1763.87	4.65869
1764.13	6.5689
1764.38	6.57878
1764.64	4.69043
1764.89	11.3716
1765.15	6.62577
1765.4	5.68493
1765.66	2.83846
1765.92	10.4627
1766.17	12.3741
1766.43	7.61949
1766.68	6.67166
1766.94	9.52988
1767.19	8.58051
1767.45	9.5373
1767.7	10.4911
1767.96	10.4905
1768.21	8.58617
1768.47	7.63533
1768.73	4.78324
1768.98	13.3475
1769.24	12.3825
1769.49	12.3623
1769.75	6.64456
1770	7.58558
1770.26	10.441
1770.51	5.70813
1770.77	7.62373
1771.02	12.3804
1771.28	8.5887
1771.53	5.75453
1771.79	6.72517
1772.04	10.5394
1772.3	8.64553
1772.55	8.65816
1772.81	8.6724
1773.06	9.63596
1773.32	6.79209
1773.57	9.65746
1773.83	5.86034
1774.08	13.4847
1774.34	16.3499
1774.59	12.5502
1774.85	11.6058
1775.1	12.5699
1775.36	7.81759
1775.61	8.78301
1775.87	11.6667
1776.12	8.82452
1776.38	10.7421
1776.63	9.79587
1776.89	5.98599
1777.14	11.7054
1777.4	8.84379
1777.65	5.03282
1777.91	11.7005
1778.16	11.6976
1778.42	10.7421
1778.67	3.12142
1778.93	5.97493
1779.18	8.82501
1779.44	5.96377
1779.69	6.91383
1779.95	10.7238
1780.2	7.88712
1780.46	8.84708
1780.71	11.7108
1780.97	4.10512
1781.22	7.92205
1781.47	1.26418
1781.73	5.07908
1781.98	9.84845
1782.24	6.05063
1782.49	1.30011
1782.75	6.07686
1783	10.8522
1783.26	9.90976
1783.51	6.10758
1783.77	8.02425
1784.02	9.94146
1784.28	7.09263
1784.53	4.2443
1784.79	6.16687
1785.04	9.99431
1785.29	5.23246
1785.55	7.14572
1785.8	5.24043
1786.06	7.14931
1786.31	5.2422
1786.57	5.24782
1786.82	6.21011
1787.08	3.35912
1787.33	8.1438
1787.58	2.43257
1787.84	6.27116
1788.09	5.34466
1788.35	2.50612
1788.6	7.31824
1788.86	6.38338
1789.11	4.48034
1789.37	5.45185
1789.62	3.55541
1789.87	0.694862
1790.13	1.6625
1790.38	8.38164
1790.64	6.47466
1790.89	1.68641
1791.15	7.44132
1791.4	3.60303
1791.65	4.54269
1791.91	2.62853
1792.16	5.5026
1792.42	1.67701
1792.67	3.59856
1792.93	1.68966
1793.18	7.44631
1793.43	1.70639
1793.69	9.37611
1793.94	10.3392
1794.2	6.51686
1794.45	6.52298
1794.7	2.69391
1794.96	6.52506
1795.21	3.66592
1795.47	5.61763
1795.72	0.844337
1795.97	0.857777
1796.23	3.74777
1796.48	4.7192
1796.74	0.889313
1796.99	-1.0207
1797.25	4.75502
1797.5	1.88361
1797.75	4.77708
1798.01	1.90261
1798.26	1.91086
1798.51	0.956905
1798.77	3.84786
1799.02	-1.91705
1799.28	-1.91467
1799.53	3.85452
1799.78	-0.953575
1800.04	0.966278
1800.29	0.964069
1800.55	0.96315
1800.8	-1.9189
1801.05	-0.957153
1801.31	0.965916
1801.56	1.92927
1801.81	1.93322
1802.07	-0.943203
1802.32	0.0235329
1802.58	4.83424
1802.83	0.0389824
1803.08	7.73655
1803.34	4.86503
1803.59	0.0700531
1803.84	2.00294
1804.1	6.81846
1804.35	0.0921974
1804.61	2.02402
1804.86	2.03442
1805.11	2.04473
1805.37	1.09388
1805.62	9.77069
1805.87	3.04423
1806.13	4.01891
1806.38	2.10249
1806.64	3.07524
1806.89	5.97474
1807.14	1.16303
1807.4	4.05908
1807.65	1.17155
1807.9	-3.64389
1808.16	-0.748665
1808.41	2.14682
1808.66	2.15109
1808.92	-0.736156
1809.17	5.05206
1809.42	2.16494
1809.68	1.20546
1809.93	4.10245
1810.18	-0.713299
1810.44	-0.708961
1810.69	1.22292
1810.94	4.11677
1811.2	1.22581
1811.45	0.264362
1811.7	-1.66138
1811.96	5.08957
1812.21	1.23682
1812.46	4.13388
1812.72	2.21255
1812.97	4.1493
1813.22	7.0526
1813.48	3.20269
1813.73	4.17258
1813.98	1.28615
1814.24	2.26187
1814.49	-0.621845
1814.74	3.25274
1815	7.13159
1815.25	1.3452
1815.5	0.387077
1815.76	4.25835
1816.01	3.29658
1816.26	1.36793
1816.52	2.339
1816.77	-0.555901
1817.02	-0.550964
1817.27	3.31639
1817.53	-1.51904
1817.78	-2.49744
1818.03	1.35777
1818.29	1.36193
1818.54	2.33659
1818.79	0.416145
1819.05	6.22237
1819.3	3.32363
1819.55	2.36222
1819.8	5.26854
1820.06	3.34207
1820.31	1.41413
1820.56	0.453533
1820.82	1.42737
1821.07	3.36769
1821.32	2.40609
1821.58	3.3805
1821.83	3.3885
1822.08	4.36356
1822.33	3.40225
1822.59	1.47188
1822.84	-0.459667
1823.09	3.41629
1823.34	0.515808
1823.6	-0.450981
1823.85	4.38807
1824.1	2.45037
1824.36	2.45128
1824.61	0.520058
1824.86	1.4929
1825.11	2.46583
1825.37	1.5029
1825.62	0.540035
1825.87	1.51263
1826.12	-0.421913
1826.38	-0.420437
1826.63	3.45567
1826.88	0.552799
1827.14	5.39777
1827.39	3.46459
1827.64	3.46961
1827.89	3.47517
1828.15	2.51138
1828.4	-0.393711
1828.65	2.51297
1828.9	1.54206
1829.16	3.47575
1829.41	0.567944
1829.66	3.47351
1829.91	-0.40062
1830.17	-0.401287
1830.42	3.46935
1830.67	9.27567
1830.92	-0.408833
1831.18	1.52865
1831.43	0.565361
1831.68	-0.397388
1831.93	3.48222
1832.19	3.48788
1832.44	5.43108
1832.69	1.56186
1832.94	0.600693
1833.2	-0.362839
1833.45	0.607944
1833.7	2.54816
1833.95	3.52171
1834.2	1.58533
1834.46	1.58844
1834.71	1.58023
1834.96	8.34396
1835.21	1.5462
1835.47	1.53085
1835.72	2.48875
1835.97	-2.3568
1836.22	4.41422
1836.48	8.27429
1836.73	2.61676
1836.98	-2.24171
1837.23	1.59556
1837.48	4.48682
1837.74	2.52368
1837.99	2.50184
1838.24	-2.3681
1838.49	-1.42038
1838.74	0.508144
1839	8.30677
1839.25	4.46326
1839.5	0.602112
1839.75	3.514
1840	2.55002
1840.26	-0.34906
1840.51	0.58942
1840.76	0.565968
1841.01	4.41482
1841.27	-4.30463
1841.52	0.513069
1841.77	-1.43365
1842.02	3.38069
1842.27	2.40215
1842.53	6.24899
1842.78	5.27134
1843.03	1.41939
1843.28	3.34476
1843.53	-0.509911
1843.78	4.31241
1844.04	-1.47567
1844.29	1.4142
1844.54	-0.515465
1844.79	2.38212
1845.04	-2.44096
1845.3	3.34057
1845.55	-2.44583
1845.8	-0.516991
1846.05	1.42586
1846.3	-1.45578
1846.55	-0.478168
1846.81	0.510624
1847.06	-0.474678
1847.31	3.33604
1847.56	1.34812
1847.81	1.33599
1848.07	0.373295
1848.32	5.20491
1848.57	1.36766
1848.82	-2.50313
1849.07	1.33904
1849.32	2.30202
1849.57	-1.5565
1849.83	-3.49129
1850.08	2.27088
1850.33	2.25941
1850.58	3.20651
1850.83	-4.49449
1851.09	3.18411
1851.34	-0.667637
1851.59	-1.63548
1851.84	1.23983
1852.09	-1.64576
1852.34	3.15266
1852.59	2.19079
1852.84	-0.691151
1853.1	0.267628
1853.35	2.1857
1853.6	1.22189
1853.85	2.17671
1854.1	0.248638
1854.35	-1.68134
1854.6	-2.65235
1854.86	-4.58059
1855.11	-3.62777
1855.36	-2.67516
1855.61	0.189659
1855.86	-0.781055
1856.11	-3.66264
1856.36	2.08014
1856.61	-2.7125
1856.87	-7.50335
1857.12	0.157158
1857.37	0.153847
1857.62	-3.6817
1857.87	-0.814342
1858.12	3.96708
1858.37	1.08742
1858.63	0.121422
1858.88	-3.71575
1859.13	0.102119
1859.38	-2.77738
1859.63	-4.69964
1859.88	0.0734329
1860.13	-0.885513
1860.38	-0.887512
1860.63	0.0683937
1860.89	0.0724525
1861.14	2.94535
1861.39	-1.8345
1861.64	3.90973
1861.89	-0.871284
1862.14	-3.74283
1862.39	0.0810089
1862.64	1.03042
1862.9	0.0640678
1863.15	-5.68443
1863.4	4.82404
1863.65	-0.922703
1863.9	2.89067
1864.15	0.0145149
1864.4	0.00585175
1864.65	-1.91297
1864.9	1.89888
1865.15	0.934105
1865.4	0.922707
1865.66	0.909767
1865.91	-0.0583191
1866.16	-1.02736
1866.41	0.862804
1866.66	0.845387
1866.91	-0.124123
1867.16	-2.04484
1867.41	1.74594
1867.66	-4.92896
1867.91	0.765598
1868.16	-0.194103
1868.41	0.749874
1868.67	1.69513
1868.92	0.742012
1869.17	-2.11138
1869.42	1.68806
1869.67	-1.16887
1869.92	-1.17404
1870.17	-4.0307
1870.42	5.46959
1870.67	0.712147
1870.92	-1.1933
1871.17	2.60421
1871.42	-0.250782
1871.67	-3.10744
1871.92	-5.96487
1872.17	0.677433
1872.42	1.61989
1872.68	-2.1864
1872.93	-3.14525
1873.18	-0.30645
1873.43	-1.2638
1873.68	3.47778
1873.93	-5.07183
1874.18	1.56435
1874.43	-3.19044
1874.68	-2.25207
1874.93	0.581993
1875.18	-1.32684
1875.43	0.556652
1875.68	1.49114
1875.93	6.21184
1876.18	0.505085
1876.43	-5.19016
1876.68	-3.31016
1876.93	-0.483318
1877.18	-1.4377
1877.43	-1.45751
1877.68	-4.31512
1877.93	-7.1833
1878.18	-3.38802
1878.44	3.35245
1878.69	1.40403
1878.93	-1.45416
1879.19	-4.30054
1879.44	0.457878
1879.69	2.36427
1879.94	-2.38641
1880.19	0.440575
1880.44	1.38155
1880.69	1.37503
1880.94	-5.25006
1881.19	1.36666
1881.44	-2.42612
1881.69	-0.550636
1881.94	2.26635
1882.19	-0.591953
1882.44	0.330978
1882.69	-1.58151
1882.94	-0.664429
1883.19	-1.62152
1883.44	0.236259
1883.69	0.455067
1883.94	-2.53061
1884.19	-0.730972
1884.44	2.09446
1884.69	2.11108
1884.94	0.20256
1885.19	0.210651
1885.44	0.223495
1885.69	0.223713
1885.94	1.16706
1886.19	-2.59696
1886.44	0.238632
1886.69	-0.705223
1886.94	2.11993
1887.19	-1.67571
1887.44	-3.57513
1887.69	1.13094
1887.94	5.8343
1888.19	-1.72528
1888.44	0.146511
1888.69	-3.64136
1888.94	2.93822
1889.19	1.97993
1889.44	1.96402
1889.69	-2.75375
1889.94	-3.70112
1890.19	1.94031
1890.44	1.93868
1890.69	1.00018
1890.94	1.94503
1891.19	-1.82512
1891.43	-1.83133
1891.68	-3.72287
1891.94	0.980324
1892.18	-3.73559
1892.43	0.966015
1892.68	0.0179977
1892.93	0.949497
1893.18	-0.00414276
1893.43	4.68346
1893.68	0.895145
1893.93	1.81303
1894.18	1.80348
1894.43	0.863983
1894.68	-1.03324
1894.93	1.77418
1895.18	3.64504
1895.43	3.64081
1895.68	0.819645
1895.93	-0.12178
1896.18	-0.123177
1896.43	-1.06406
1896.68	-0.124065
1896.93	-0.122925
1897.18	1.75823
1897.42	0.816925
1897.68	3.6366
1897.92	-0.129795
1898.17	2.68657
1898.42	0.797638
1898.67	-3.91443
1898.92	1.71688
1899.17	1.70326
1899.42	1.68863
1899.67	-1.14286
1899.92	-2.09151
1900.17	6.35426
1900.42	1.64667
1900.67	2.57917
1900.92	2.5747
1901.16	3.51225
1901.41	0.693893
1901.66	2.57512
1901.91	0.696468
1902.16	0.697788
1902.41	2.58116
1902.66	1.64264
1902.91	2.57801
1903.16	3.50975
1903.41	-0.26189
1903.66	2.54947
1903.91	0.659843
1904.16	-3.10923
1904.41	-3.11654
1904.65	-1.24297
1904.9	-1.24998
1905.15	-1.25762
1905.4	1.5554
1905.65	-2.21124
1905.9	3.42112
1906.15	4.34446
1906.4	6.20423
1906.65	0.556976
1906.9	0.54694
1907.14	3.35477
1907.39	0.529026
1907.64	-3.23276
1907.89	7.09318
1908.14	2.39643
1908.39	2.39729
1908.64	4.27329
1908.89	-1.36783
1909.14	8.02609
1909.39	2.38791
1909.63	3.32924
1909.88	2.39239
1910.13	-0.424355
1910.38	0.521511
1910.63	2.40986
1910.88	3.35652
1911.13	-4.17468
1911.38	1.47497
1911.62	-2.2954
1911.87	0.525703
1912.12	4.28724
1912.37	-3.25692
1912.62	1.44408
1912.87	0.495289
1913.12	-3.27835
1913.37	1.42481
1913.61	1.41989
1913.86	-0.464977
1914.11	3.30774
1914.36	-1.39971
1914.61	0.487358
1914.86	-2.34081
1915.11	1.43286
1915.36	-0.453255
1915.6	2.37606
1915.85	-1.40258
1916.1	1.42124
1916.35	2.35557
1916.6	1.40382
1916.85	1.39247
1917.1	-3.33723
1917.34	4.19509
1917.59	2.29745
1917.84	1.3446
1918.09	0.393387
1918.34	-2.44028
1918.59	3.21515
1918.83	-2.44148
1919.08	-2.43929
1919.33	2.28215
1919.58	-2.43223
1919.83	2.29641
1920.08	0.413628
1920.33	3.24853
1920.57	5.13374
1920.82	1.34353
1921.07	-2.43999
1921.32	0.397171
1921.57	-0.545444
1921.81	2.29
1922.06	6.07143
1922.31	-1.49745
1922.56	-0.558037
1922.81	-3.40421
1923.06	2.25799
1923.31	2.24632
1923.55	-2.4903
1923.8	1.28176
1924.05	-1.56353
1924.3	2.2056
1924.55	3.13755
1924.79	2.18177
1925.04	4.06337
1925.29	5.00328
1925.54	1.22239
1925.79	1.22348
1926.04	-0.662861
1926.28	-3.49695
1926.53	2.18012
1926.78	1.23759
1927.03	4.08185
1927.28	0.296677
1927.52	0.295532
1927.77	3.1349
1928.02	2.18612
1928.27	3.13114
1928.52	3.12882
1928.76	4.07245
1929.01	-0.666538
1929.26	4.06966
1929.51	0.278191
1929.76	1.22745
1930	3.12881
1930.25	0.286297
1930.5	-0.658409
1930.75	-3.50393
1931	-1.60334
1931.24	1.24102
1931.49	2.18509
1931.74	-3.52051
1931.99	0.266109
1932.24	0.255001
1932.48	2.14172
1932.73	-1.66534
1932.98	4.01563
1933.23	4.9562
1933.47	-0.747009
1933.72	0.197323
1933.97	0.200935
1934.22	-4.53548
1934.46	-1.67224
1934.71	1.20311
1934.96	1.22729
1935.21	-0.657284
1935.46	0.310139
1935.7	-1.58601
1935.95	1.28006
1936.2	-1.60956
1936.45	2.19301
1936.69	-1.62773
1936.94	-3.54408
1937.19	3.11203
1937.44	-0.713436
1937.68	0.225483
1937.93	1.16388
1938.18	-1.70473
1938.43	-4.57299
1938.68	-0.772747
1938.92	-0.767292
1939.17	0.182598
1939.42	-2.67531
1939.67	0.181168
1939.91	1.13202
1940.16	3.03718
1940.41	2.07967
1940.66	-0.776814
1940.9	-1.72806
1941.15	-1.71254
1941.4	1.15676
1941.64	2.10481
1941.89	-2.67708
1942.14	2.07444
1942.39	1.09284
1942.63	-1.76118
1942.88	-4.59742
1943.13	3.04214
1943.38	0.172859
1943.62	2.06153
1943.87	1.08469
1944.12	1.06612
1944.37	-1.78031
1944.61	0.129791
1944.86	-1.77859
1945.11	0.132877
1945.35	0.135391
1945.6	2.04886
1945.85	-0.815327
1946.1	-0.813896
1946.34	-3.68193
1946.59	2.05428
1946.84	3.00873
1947.09	0.135662
1947.33	-1.78397
1947.58	-0.836506
1947.83	0.110172
1948.07	0.10331
1948.32	2.00946
1948.57	-11.3839
1948.82	-2.78655
1949.06	-2.79095
1949.31	-1.83476
1949.56	2.94882
1949.8	-0.87616
1950.05	-2.78753
1950.3	2.00142
1950.54	-1.81965
1950.79	2.02219
1951.04	-3.72143
1951.29	-1.79739
1951.53	-0.830322
1951.78	-0.823128
1952.03	-0.81855
1952.27	-0.817596
1952.52	-1.77848
1952.77	3.02326
1953.01	1.09522
1953.26	0.135487
1953.51	-3.70466
1953.76	-0.837418
1954	-1.81629
1954.25	-5.68174
1954.49	1.00952
1954.74	-3.80799
1954.99	1.92072
1955.24	-0.00617599
1955.48	0.944889
1955.73	-0.972561
1955.98	-0.0106049
1956.22	1.91648
1956.47	-0.941246
1956.72	-3.81629
1956.96	-0.931602
1957.21	-0.93119
1957.46	2.91307
1957.7	4.83689
1957.95	2.91738
1958.2	-1.88744
1958.44	-0.928413
1958.69	1.95206
1958.94	-2.85742
1959.18	-1.90435
1959.43	2.88855
1959.68	-2.88573
1959.92	1.91179
1960.17	1.90075
1960.42	2.85009
1960.66	-3.88367
1960.91	3.78754
1961.16	0.894764
1961.4	-1.99654
1961.65	1.83207
1961.9	-0.0962067
1962.14	-2.01958
1962.39	3.73555
1962.63	-2.98653
1962.88	4.68833
1963.13	-1.07428
1963.37	-0.118114
1963.62	-1.08189
1963.87	-1.08573
1964.11	2.7511
1964.36	0.830448
1964.61	0.829407
1964.85	3.70457
1965.1	-0.144192
1965.35	-4.94951
1965.59	3.68604
1965.84	2.72175
1966.08	-0.160217
1966.33	-0.158302
1966.58	-3.0374
1966.82	-0.152233
1967.07	3.69282
1967.32	-3.03549
1967.56	-3.04125
1967.81	6.5663
1968.05	2.72014
1968.3	4.63961
1968.55	0.791218
1968.79	3.66992
1969.04	-0.18343
1969.29	3.65021
1969.53	3.63598
1969.78	-0.223278
1970.02	3.6021
1970.27	4.54752
1970.52	1.6552
1970.76	1.64544
1971.01	0.674973
1971.25	7.38086
1971.5	5.45295
1971.75	5.44458
1971.99	6.39615
1972.24	5.43566
1972.48	0.638786
1972.73	4.4738
1972.98	2.55037
1973.22	1.58355
1973.47	6.36869
1973.71	4.43741
1973.96	-2.28522
1974.21	3.45779
1974.45	2.49181
1974.7	3.44468
1974.94	5.35778
1975.19	0.562523
1975.44	5.35456
1975.68	5.35582
1975.93	8.23481
1976.17	6.31865
1976.42	3.44164
1976.66	5.35868
1976.91	4.39706
1977.16	4.3934
1977.4	6.30682
1977.65	4.38188
1977.89	7.25075
1978.14	7.24035
1978.39	6.27086
1978.63	2.42692
1978.88	10.0874
1979.12	7.2054
1979.37	6.24321
1979.61	11.0335
1979.86	6.23758
1980.1	4.3186
1980.35	10.0672
1980.6	6.22535
1980.84	9.08941
1981.09	8.12027
1981.33	10.9873
1981.58	7.14552
1981.82	7.13745
1982.07	5.21561
1982.31	9.04186
1982.56	7.12138
1982.81	5.19624
1983.05	6.14357
1983.3	9.00217
1983.54	12.8136
1983.79	9.9297
1984.03	12.792
1984.28	13.742
1984.52	16.6035
1984.77	12.7696
1985.02	11.8062
1985.26	11.7952
1985.51	7.00051
1985.75	11.7711
1986	8.90109
1986.24	12.7244
1986.49	8.9043
1986.73	10.8213
1986.98	13.6911
1987.22	14.6427
1987.47	15.6
1987.71	14.6324
1987.96	9.83596
1988.21	12.6847
1988.45	9.79847
1988.7	17.4138
1988.94	12.6006
1989.19	16.3467
1989.43	17.2533
1989.68	13.444
1989.92	14.5476
1990.17	15.1219
1990.41	18.0903
1990.66	12.6249
1990.9	17.0334
1991.15	12.9257
1991.39	16.7699
1991.64	13.4656
1991.88	18.2752
1992.13	14.8521
1992.37	13.9002
1992.62	18.6663
1992.86	17.6175
1993.11	12.8807
1993.35	17.0021
1993.6	20.4896
1993.84	15.9924
1994.09	14.6249
1994.33	17.8282
1994.58	13.433
1994.82	18.0899
1995.07	17.8606
1995.31	17.8977
1995.56	14.1048
1995.8	17.2674
1996.05	18.8983
1996.29	15.1716
1996.54	19.2248
1996.78	23.5883
1997.03	18.9702
1997.27	17.6837
1997.52	19.6072
1997.76	19.8396
1998.01	19.0236
1998.25	13.4917
1998.5	17.1267
1998.74	22.2237
1998.99	22.1517
1999.23	17.7938
1999.48	18.7251
1999.72	18.2988
1999.97	17.0384
2000.21	19.3582
2000.46	17.7573
2000.7	19.2085
2000.95	22.2869
2001.19	21.7448
2001.43	21.6657
2001.68	17.0522
2001.92	16.1614
2002.17	20.703
2002.41	18.8435
2002.66	20.8902
2002.9	21.0048
2003.15	21.1508
2003.39	21.7828
2003.64	22.5389
2003.88	21.6512
2004.13	18.7758
2004.37	20.6585
2004.61	23.1385
2004.86	21.7055
2005.1	20.5317
2005.35	21.6543
2005.59	22.6119
2005.84	21.2002
2006.08	21.5412
2006.33	18.5017
2006.57	22.3522
2006.81	19.1907
2007.06	20.2522
2007.3	23.342
2007.55	23.5228
2007.79	24.7842
2008.04	22.4866
2008.28	23.156
2008.53	19.1256
2008.77	18.4518
2009.01	20.394
2009.26	22.7546
2009.5	21.9585
2009.75	21.323
2009.99	20.2386
2010.24	22.909
2010.48	19.6795
2010.73	21.8981
2010.97	23.8351
2011.21	21.5368
2011.46	23.0643
2011.7	18.9672
2011.95	10.8757
2012.19	24.0128
2012.43	16.7272
2012.68	16.7245
2012.92	22.3715
2013.17	22.3614
2013.42	22.3432
2013.67	21.376
2013.91	18.5408
2014.16	18.5231
2014.41	20.3806
2014.66	18.4755
2014.9	21.2684
2015.15	22.2015
2015.4	26.8984
2015.64	21.277
2015.89	20.3499
2016.14	22.2363
2016.39	20.3547
2016.63	16.6145
2016.88	19.4736
2017.13	16.6639
2017.37	15.7232
2017.62	18.537
2017.87	19.4664
2018.11	15.6955
2018.36	20.3727
2018.61	18.4756
2018.86	17.5206
2019.1	17.5041
2019.35	19.3607
2019.6	18.4067
2019.84	15.5887
2020.09	18.3943
2020.34	19.3296
2020.58	17.4579
2020.83	17.4582
2021.08	22.1416
2021.33	15.5915
2021.57	18.4075
2021.82	14.6641
2022.07	13.7281
2022.31	10.917
2022.56	14.6592
2022.81	12.7806
2023.05	20.2601
2023.3	19.3121
2023.55	14.6262
2023.8	16.4892
2024.04	17.4165
2024.29	15.5387
2024.54	10.8588
2024.78	18.3226
2025.03	15.5056
2025.27	15.4924
2025.52	15.4802
2025.77	15.469
2026.02	13.5931
2026.26	15.4451
2026.51	12.6556
2026.76	9.87751
2027	13.6438
2027.25	11.8153
2027.5	16.5346
2027.74	10.0155
2027.99	13.7558
2028.23	11.8593
2028.48	13.689
2028.73	13.5626
2028.98	13.6937
2029.22	13.8732
2029.47	10.9743
2029.72	16.6396
2029.96	12.8156
2030.21	11.8347
2030.45	11.7866
2030.7	8.05762
2030.95	12.6871
2031.19	8.99505
2031.44	13.6909
2031.69	8.08983
2031.93	10.8937
2032.18	10.8996
2032.43	9.98386
2032.67	14.6713
2032.92	17.496
2033.17	10.9773
2033.41	10.0591
2033.66	9.13812
2033.91	9.15567
2034.15	7.29623
2034.4	13.8226
2034.64	8.19066
2034.89	15.6174
2035.14	10.0123
2035.38	11.9026
2035.63	8.18896
2035.87	9.1521
2036.12	13.8628
2036.37	12.9572
2036.61	10.1545
2036.86	12.0063
2037.11	8.27365
2037.35	9.22418
2037.6	8.29407
2037.84	7.36232
2038.09	9.23353
2038.34	9.23362
2038.58	9.23293
2038.83	9.23167
2039.08	5.49282
2039.32	4.55785
2039.57	3.62277
2039.81	7.35763
2040.06	9.2215
2040.31	4.54789
2040.55	12.0084
2040.8	5.47183
2041.04	11.0644
2041.29	9.19588
2041.54	6.39727
2041.78	6.39997
2042.03	7.33565
2042.27	-0.120586
2042.52	8.26914
2042.77	11.0617
2043.01	9.20091
2043.26	4.54837
2043.5	1.76263
2043.75	11.0989
2044	7.39349
2044.24	7.41696
2044.49	4.63073
2044.73	2.76942
2044.98	9.29597
2045.23	10.2153
2045.47	3.66256
2045.72	3.71485
2045.96	10.2632
2046.21	8.46408
2046.45	9.47541
2046.7	8.51025
2046.95	6.60804
2047.19	4.71837
2047.44	3.79331
2047.68	2.85592
2047.93	11.225
2048.17	3.76492
2048.42	12.1635
2048.67	3.78224
2048.91	3.79176
2049.16	3.80265
2049.4	1.0214
2049.65	6.63322
2049.89	5.7188
2050.14	3.87333
2050.39	5.75831
2050.63	4.84269
2050.88	7.65873
2051.12	5.79971
2051.37	8.60716
2051.61	4.86997
2051.86	1.13118
2052.11	4.87323
2052.35	1.14652
2052.6	7.69669
2052.84	9.57396
2053.09	1.18024
2053.33	8.6672
2053.58	3.07689
2053.82	3.09401
2054.07	1.24892
2054.31	6.87499
2054.56	5.95282
2054.8	6.89745
2055.05	3.16271
2055.3	6.91027
2055.54	4.10942
2055.79	2.23822
2056.03	4.11221
2056.28	5.0534
2056.52	4.12299
2056.77	5.06179
2057.01	5.06749
2057.26	5.07541
2057.5	6.95502
2057.75	1.35744
2058	5.1099
2058.24	0.448566
2058.49	5.13837
2058.73	3.28529
2058.98	2.36636
2059.22	5.19001
2059.47	-3.22011
2059.71	4.27932
2059.96	1.48141
2060.2	6.17181
2060.45	3.36718
2060.69	0.562477
2060.94	6.18261
2061.18	5.26013
2061.43	5.27446
2061.67	6.22339
2061.92	4.36149
2062.16	4.37113
2062.41	1.57246
2062.65	6.26579
2062.9	3.46951
2063.14	5.35696
2063.39	4.43617
2063.63	-0.23336
2063.88	-0.21991
2064.12	2.60453
2064.37	-3.00712
2064.61	0.754028
2064.86	3.57964
2065.1	0.781334
2065.35	2.67427
2065.59	1.75625
2065.84	0.836853
2066.08	3.67041
2066.33	4.6259
2066.57	0.884624
2066.82	3.71261
2067.06	0.90863
2067.31	5.61827
2067.55	-0.944252
2067.8	0.00906372
2068.04	2.84298
2068.29	0.978077
2068.53	0.991322
2068.78	3.82284
2069.02	1.01786
2069.27	-2.73242
2069.51	-0.847115
2069.76	-4.60527
2070	1.02796
2070.25	-0.846169
2070.49	-0.833317
2070.73	-1.7497
2070.98	1.09629
2071.22	-2.63864
2071.47	1.13129
2071.71	-1.68956
2071.96	0.23877
2072.2	-0.679504
2072.45	-0.671665
2072.69	1.21931
2072.94	1.22836
2073.18	-1.58892
2073.43	-0.637314
2073.67	-2.5118
2073.92	-0.617146
2074.16	0.335739
2074.4	3.1728
2074.65	-2.46314
2074.89	-1.50523
2075.14	2.28206
2075.38	1.36213
2075.63	0.444748
2075.87	1.41614
2076.12	-1.39243
2076.36	-2.32014
2076.6	4.29913
2076.85	-2.29695
2077.09	-0.401783
2077.34	-0.397812
2077.58	3.37962
2077.83	-1.34176
2078.07	-0.391666
2078.31	2.45223
2078.56	1.52726
2078.8	-0.34581
2079.05	-2.21918
2079.29	0.626888
2079.54	0.64563
2079.78	-0.272305
2080.03	2.57861
2080.27	-0.23843
2080.51	-3.05693
2080.76	-3.04219
2081	-1.14083
2081.25	-1.133
2081.49	0.765476
2081.74	-1.11413
2081.98	-2.04826
2082.22	1.74085
2082.47	0.809734
2082.71	3.65818
2082.96	0.836395
2083.2	1.79331
2083.45	-0.0860977
2083.69	-1.02122
2083.93	5.60327
2084.18	-0.0549736
2084.42	-0.0432816
2084.67	-1.92227
2084.91	-0.96554
2085.15	-0.953161
2085.4	0.948471
2085.64	-0.930304
2085.89	1.91628
2086.13	0.0399666
2086.37	4.78638
2086.62	0.0814133
2086.86	-1.79142
2087.11	-0.83094
2087.35	-0.81554
2087.59	-1.74509
2087.84	0.162106
2088.08	-3.61157
2088.32	0.186039
2088.57	0.198578
2088.81	0.211647
2089.06	-1.66805
2089.3	-0.708363
2089.54	0.254925
2089.79	0.27216
2090.03	3.13391
2090.28	-1.58728
2090.52	-0.62668
2090.76	-2.50741
2091.01	-0.597973
2091.25	0.364937
2091.5	1.32805
2091.74	-1.49998
2091.98	-1.4803
2092.23	-3.35623
2092.47	0.459339
2092.72	1.43071
2092.96	-5.1909
2093.2	-1.37358
2093.45	0.545593
2093.69	1.51591
2093.93	-0.364557
2094.18	0.604523
2094.42	-2.22945
2094.66	-1.26494
2094.91	0.648552
2095.15	1.60976
2095.39	-1.2325
2095.64	-2.17601
2095.88	2.58226
2096.13	-3.11155
2096.37	1.64764
2096.61	1.65731
2096.86	-2.13166
2097.1	0.729105
2097.34	1.68673
2097.59	2.64191
2097.83	-2.09978
2098.07	-3.03938
2098.32	-3.978
2098.56	-2.06861
2098.8	-3.00974
2099.05	-1.09918
2099.29	-1.08769
2099.53	-1.07721
2099.78	1.78077
2100.02	-1.05451
2100.27	-0.0928307
2100.51	0.869541
2100.75	-1.01454
2101	-0.999147
2101.24	5.66675
2101.48	-0.961004
2101.73	2.85421
2101.97	-5.67959
2102.21	-1.8679
2102.45	-2.80601
2102.7	-1.84361
2102.94	-0.883152
2103.18	-0.875608
2103.43	1.02951
2103.67	-3.70815
2103.92	1.99924
2104.16	-2.73632
2104.4	0.124454
2104.64	-0.809711
2104.89	0.156982
2105.13	-0.775434
2105.37	1.1409
2105.62	4.95893
2105.86	-1.67153
2106.1	1.19772
2106.35	0.263409
2106.59	-0.671417
2106.83	-3.50911
2107.08	0.307348
2107.32	0.322844
2107.56	1.28728
2107.8	-0.605049
2108.05	2.25325
2108.29	3.20758
2108.53	-2.48924
2108.78	2.2644
2109.02	-1.52815
2109.26	1.33047
2109.51	0.394976
2109.75	3.26494
2109.99	-4.31511
2110.23	1.39768
2110.48	0.46048
2110.72	0.473091
2110.96	-0.464287
2111.21	3.34841
2111.45	-0.439159
2111.69	-1.37847
2111.93	-0.420033
2112.18	-1.36016
2112.42	1.49969
2112.66	-0.387041
2112.91	1.52813
2113.15	-1.30532
2113.39	-2.23909
2113.63	-2.21937
2113.88	-1.25042
2114.12	4.46811
2114.36	0.67701
2114.61	-3.11447
2114.85	3.55005
2115.09	-2.13796
2115.33	-1.17415
2115.58	0.737717
2115.82	4.54887
2116.06	-3.99302
2116.31	1.71826
2116.55	-3.02522
2116.79	-0.168499
2117.03	-2.05793
2117.28	-0.147493
2117.52	-0.136026
2117.76	0.827581
2118	-2.01148
2118.25	-2.95262
2118.49	-3.89367
2118.73	-0.0920258
2118.97	-2.93434
2119.22	-0.0824337
2119.46	-1.97268
2119.7	-1.96594
2119.94	0.884604
2120.19	-3.84698
2120.43	-3.83819
2120.67	2.80581
2120.91	-6.65608
2121.16	1.88998
2121.4	0.0100918
2121.64	-0.918449
2121.88	3.84281
2122.13	-1.82783
2122.37	-0.86054
2122.61	0.106409
2122.85	0.123743
2123.1	-1.75779
2123.34	0.156725
2123.58	-0.777437
2123.82	3.03398
2124.07	-4.55053
2124.31	2.10377
2124.55	1.16189
2124.79	0.217562
2125.03	2.11506
2125.28	-1.67957
2125.52	-3.57458
2125.76	-2.62379
2126	0.221226
2126.25	-2.61495
2126.49	0.229658
2126.73	-1.65654
2126.97	0.242104
2127.21	1.19396
2127.46	-2.58237
2127.7	1.20985
2127.94	-0.670202
2128.18	-2.55025
2128.43	0.295338
2128.67	1.25122
2128.91	-1.57191
2129.15	-3.44979
2129.39	2.233
2129.64	-1.53772
2129.88	0.36305
2130.12	0.374195
2130.36	-0.559805
2130.6	-1.49405
2130.85	-0.538939
2131.09	-2.41893
2131.33	1.36889
2131.57	-3.34596
2131.81	-1.44889
2132.06	-3.32906
2132.3	-0.486717
2132.54	-1.42172
2132.78	-5.19039
2133.02	0.479687
2133.27	-2.34177
2133.51	-1.38619
2133.75	2.40189
2133.99	-1.35926
2134.23	0.540672
2134.48	-2.27689
2134.72	-0.376204
2134.96	1.52282
2135.2	1.53419
2135.44	-2.22931
2135.68	-1.27479
2135.93	0.621738
2136.17	-2.20143
2136.41	-2.1976
2136.65	-1.25076
2136.89	2.52801
2137.14	1.59885
2137.38	0.669468
2137.62	0.682213
2137.86	-1.18818
2138.1	-0.226868
2138.34	0.725967
2138.59	1.67224
2138.83	0.735165
2139.07	1.69548
2139.31	1.71748
2139.55	-0.149784
2139.79	2.67612
2140.03	1.73347
2140.28	0.797771
2140.52	-0.136967
2140.76	1.75531
2141	-0.120016
2141.24	0.831444
2141.49	-2.92612
2141.73	-0.0885811
2141.97	-0.082613
2142.21	-0.0772781
2142.45	-2.89189
2142.69	-0.056221
2142.93	1.84425
2143.18	0.919241
2143.42	1.89795
2143.66	0.955338
2143.9	1.83152
2144.14	0.903353
2144.38	1.86051
2144.62	-1.87765
2144.87	1.90535
2145.11	0.0417271
2145.35	0.0366383
2145.59	-3.71027
2145.83	-4.6379
2146.07	2.89414
2146.31	-4.61818
2146.55	-0.84853
2146.8	2.92068
2147.04	0.109846
2147.28	1.05816
2147.52	0.1257
2147.76	1.07273
2148	2.01986
2148.24	0.149315
2148.48	2.03573
2148.73	1.10431
2148.97	-1.70531
2149.21	-2.63713
2149.45	2.06218
2149.69	2.0661
2149.93	1.12632
2150.17	2.06848
2150.42	0.196072
2150.66	-2.61086
2150.9	1.14681
2151.14	-0.717274
2151.38	-1.64115
2151.62	-6.31314
2151.86	0.263498
2152.1	-4.4098
2152.34	3.10555
2152.58	1.24514
2152.83	-0.624043
2153.07	3.13374
2153.31	2.20129
2153.55	0.332285
2153.79	3.15255
2154.03	-1.52559
2154.27	4.10296
2154.51	1.29527
2154.75	-1.51372
2154.99	-0.578352
2155.24	-2.45021
2155.48	3.1605
2155.72	2.22606
2155.96	4.09691
2156.2	-1.50766
2156.44	0.366402
2156.68	1.3081
2156.92	1.31734
2157.16	0.392931
2157.4	-1.4647
2157.64	3.21878
2157.89	2.29932
2158.13	-1.42273
2158.37	-6.08136
2158.61	3.27721
2158.85	1.41786
2159.09	-0.442484
2159.33	-1.36928
2159.57	4.24448
2159.81	1.44638
2160.05	-0.417673
2160.29	-1.34832
2160.53	-3.21226
2160.77	-1.3408
2161.01	0.530609
2161.25	-4.12842
2161.5	4.27849
2161.74	0.553316
2161.98	1.49346
2162.22	-0.363478
2162.46	4.31092
2162.7	0.589283
2162.94	1.53154
2163.18	3.40446
2163.42	-1.25346
2163.66	-2.17922
2163.9	-3.10466
2164.14	4.36159
2164.38	2.50282
2164.62	2.50591
2164.86	0.64377
2165.11	0.648746
2165.35	-0.272278
2165.59	-0.259918
2165.83	1.61364
2166.07	2.55548
2166.31	-0.230364
2166.55	-0.224209
2166.79	2.5772
2167.03	-3.00717
2167.27	-0.208784
2167.51	-2.06602
2167.75	2.59218
2167.99	4.45367
2168.23	-0.204105
2168.47	0.722542
2168.71	0.727232
2168.95	-0.193977
2169.19	-1.11296
2169.43	1.68922
2169.67	2.63434
2169.91	3.58232
2170.15	-2.91223
2170.39	-2.89355
2170.63	-2.87903
2170.87	2.71989
2171.11	-4.72326
2171.35	-0.994738
2171.59	1.80452
2171.83	-0.990452
2172.07	0.859335
2172.31	5.50532
2172.56	0.86064
2172.79	2.72278
2173.04	1.79815
2173.28	-1.91051
2173.51	-1.90241
2173.76	-0.965147
2174	-1.88389
2174.24	-0.94282
2174.48	-0.931913
2174.72	1.86587
2174.96	1.87466
2175.2	0.0239201
2175.44	-1.82704
2175.68	0.967497
2175.92	0.973866
2176.16	1.91034
2176.4	0.0585289
2176.64	-4.58127
2176.88	-1.78984
2177.12	-2.71237
2177.36	-1.77534
2177.6	1.94911
2177.84	-0.829308
2178.08	-0.821909
2178.32	-1.74201
2178.55	-0.807745
2178.8	1.0502
2179.03	1.05223
2179.28	-0.797604
2179.52	2.92521
2179.75	3.86187
2180	-1.70115
2180.23	3.8774
2180.47	-1.68626
2180.71	2.03449
2180.95	0.18327
2181.19	-0.739395
2181.43	2.98069
2181.67	3.91448
2181.91	1.13359
2182.15	2.99385
2182.39	-0.712534
2182.63	-1.63664
2182.87	1.15159
2183.11	2.08385
2183.35	3.01282
2183.59	-3.47823
2183.83	4.86545
2184.07	-3.47613
2184.31	0.233988
2184.55	-0.689585
2184.79	2.09577
2185.03	3.95684
2185.27	3.0402
2185.51	3.97612
2185.75	3.9854
2185.99	-0.638544
2186.23	-0.627295
2186.47	-0.615732
2186.7	3.10543
2186.95	1.26542
2187.18	2.20866
2187.42	-5.20218
2187.66	2.2392
2187.9	2.25215
2188.14	3.18909
2188.38	-2.37997
2188.62	-3.30637
2188.86	-0.519535
2189.1	1.33738
2189.34	-2.37498
2189.58	0.407587
2189.82	3.18689
2190.06	4.11179
2190.3	-0.521227
2190.54	5.04568
2190.78	2.27151
2191.01	1.35304
2191.25	1.36146
2191.49	-3.2683
2191.73	1.37515
2191.97	1.38347
2192.21	-0.462814
2192.45	-0.45455
2192.69	1.40856
2192.93	-1.36596
2193.17	1.42751
2193.41	-3.20162
2193.65	0.520538
2193.89	3.31743
2194.13	0.549887
2194.36	1.49807
2194.6	2.44251
2194.84	-0.335745
2195.08	0.597904
2195.32	-2.1885
2195.56	5.24985
2195.8	1.53304
2196.04	4.31947
2196.28	2.45822
2196.52	0.596184
2196.76	-3.12029
2197	-1.26503
2197.23	2.44638
2197.47	0.591261
2197.71	-0.335272
2197.95	-2.1851
2198.19	3.38592
2198.43	-0.316381
2198.67	3.40648
2198.91	0.634766
2199.15	6.21834
2199.38	3.44852
2199.62	1.60424
2199.86	2.54787
2200.1	3.49204
2200.34	4.44157
2200.58	3.53252
2200.82	2.62039
2201.06	2.6371
2201.3	2.65048
2201.54	-1.0654
2201.77	-1.07163
2202.01	-2.02423
2202.25	-1.14398
2202.49	7.16894
2202.73	2.55573
2202.97	1.68177
2203.21	-2.01242
2203.45	2.6347
2203.68	4.49235
2203.92	4.52394
2204.16	-1.90595
2204.4	6.45982
2204.64	0.866833
2204.88	4.60591
2205.12	0.860657
2205.36	-0.0912037
2205.59	2.6826
2205.83	5.45955
2206.07	-0.119667
2206.31	1.74422
2206.55	-1.03521
2206.79	1.75939
2207.03	5.47106
2207.26	1.75799
2207.5	-2.88327
2207.74	3.635
2207.98	1.78452
2208.22	2.72471
2208.46	1.80399
2208.7	-0.0482979
2208.93	-0.0399628
2209.17	0.898499
2209.41	4.6298
2209.65	1.84125
2209.89	3.70743
2210.13	3.70987
2210.36	3.71429
2210.6	-0.00434303
2210.84	0.0027256
2211.08	3.73726
2211.32	2.81351
2211.56	2.82117
2211.8	2.82927
2212.03	0.973921
2212.27	2.8482
2212.51	2.85568
2212.75	2.86089
2212.99	1.92903
2213.23	2.86173
2213.46	-1.80134
2213.7	2.85988
2213.94	0.0605316
2214.18	-1.79994
2214.42	-2.72483
2214.66	0.0866222
2214.89	1.03302
2215.13	4.77239
2215.37	1.97723
2215.61	0.114542
2215.85	0.118332
2216.08	-0.812119
2216.32	3.85883
2216.56	-1.74106
2216.8	-1.73932
2217.04	-3.60527
2217.28	0.130426
2217.51	1.06628
2217.75	0.136038
2217.99	-3.59507
2218.23	-2.65926
2218.47	1.07728
2218.7	-3.58782
2218.94	-0.781986
2219.18	1.09163
2219.42	-3.57186
2219.66	-3.5655
2219.9	-2.6265
2220.13	1.11659
2220.37	-0.747875
2220.61	2.05726
2220.85	0.188784
2221.09	2.99333
2221.32	0.188833
2221.56	-1.68418
2221.8	2.04683
2222.04	2.97605
2222.27	1.10496
2222.51	1.10316
2222.75	-0.762861
2222.99	0.174208
2223.23	0.179714
2223.46	-0.748531
2223.7	-0.74255
2223.94	2.06783
2224.18	0.208794
2224.42	2.08818
2224.65	1.16285
2224.89	-1.63473
2225.13	-2.56335
2225.37	0.250425
2225.6	3.06637
2225.84	-1.60499
2226.08	4.02069
2226.32	2.15511
2226.56	3.09952
2226.79	4.97945
2227.03	0.301266
2227.27	2.18253
2227.51	1.25073
2227.74	-0.62018
2227.98	-1.5551
2228.22	-2.49241
2228.46	-1.55552
2228.69	1.25654
2228.93	0.318058
2229.17	0.317604
2229.41	-1.55785
2229.64	-0.619503
2229.88	2.19869
2230.12	2.20714
2230.36	0.338751
2230.6	0.344425
2230.83	4.10439
2231.07	-0.581984
2231.31	-0.575691
2231.55	-3.38626
2231.78	-0.561831
2232.02	-3.37476
2232.26	0.389524
2232.5	0.395502
2232.73	-1.47882
2232.97	-2.41393
2233.21	-3.34928
2233.45	-2.40387
2233.68	2.30534
2233.92	0.429245
2234.16	-1.44879
2234.39	1.37837
2234.63	-4.27019
2234.87	-0.506903
2235.11	-0.509647
2235.34	0.42695
2235.58	0.417711
2235.82	-1.46954
2236.06	0.412035
2236.29	-0.526943
2236.53	0.41523
2236.77	1.35754
2237	-0.522226
2237.24	3.24188
2237.48	-2.39596
2237.72	1.37356
2237.95	2.32588
2238.19	-3.31287
2238.43	-4.24608
2238.67	2.35747
2238.9	2.36518
2239.14	4.2601
2239.38	-1.38883
2239.61	-1.38708
2239.85	0.497454
2240.09	-2.33597
2240.33	2.37214
2240.56	-0.463209
2240.8	5.18959
2241.04	-1.39836
2241.27	-1.3889
2241.51	-1.38739
2241.75	-1.38588
2241.99	1.44687
2242.22	-0.438938
2242.46	-0.436831
2242.7	2.39758
2242.93	-2.31918
2243.17	-1.37486
2243.41	0.511967
2243.64	-2.32363
2243.88	-3.27135
2244.12	-0.442335
2244.36	1.44397
2244.59	1.44458
2244.83	-1.38311
2245.07	-0.431883
2245.3	-1.36614
2245.54	-1.3573
2245.78	4.31904
2246.01	-0.401909
2246.25	2.43985
2246.49	-1.33761
2246.72	2.44988
2246.96	-0.385696
2247.2	-5.113
2247.43	-1.32502
2247.67	1.51634
2247.91	0.570641
2248.14	0.569765
2248.38	-0.378601
2248.62	-0.380753
2248.85	1.50966
2249.09	-3.22375
2249.33	-2.27946
2249.56	-0.388683
2249.8	0.561621
2250.04	-3.22156
2250.27	-1.32951
2250.51	0.559395
2250.75	-1.33887
2250.98	1.49324
2251.22	1.48587
2251.46	2.42565
2251.69	0.529886
2251.93	-3.254
2252.17	-2.30836
2252.4	-1.36085
2252.64	-0.411907
2252.88	-1.35326
2253.11	-1.34594
2253.35	-1.33301
2253.59	0.570162
2253.82	2.47236
2254.06	2.47852
2254.3	-1.3082
2254.53	-2.2521
2254.77	-0.353258
2255.01	-0.35355
2255.24	1.53931
2255.48	2.48806
2255.72	0.591122
2255.95	-0.356878
2256.19	-0.356567
2256.42	0.595524
2256.66	2.49709
2256.9	0.603767
2257.13	3.45421
2257.37	1.56025
2257.61	0.614731
2257.84	0.618139
2258.08	-0.329252
2258.32	-0.3286
2258.55	0.621344
2258.79	2.52174
2259.02	0.624054
2259.26	-1.27285
2259.5	1.58044
2259.73	1.58232
2259.97	-1.26709
2260.2	-1.26503
2260.44	0.637817
2260.68	-0.310991
2260.91	0.641346
2261.15	0.644693
2261.39	1.6037
2261.62	2.56023
2261.86	-0.293613
2262.1	3.51318
2262.33	-4.09799
2262.57	1.61319
2262.8	0.66448
2263.04	-1.2347
2263.28	-2.18218
2263.51	0.680984
2263.75	1.64135
2263.98	-3.11545
2264.22	0.707184
2264.46	-0.237226
2264.69	-1.1832
2264.93	-1.17668
2265.16	-0.21661
2265.4	-1.16701
2265.64	-1.16334
2265.87	-1.16336
2266.11	-1.16319
2266.34	-4.03165
2266.58	3.60239
2266.81	-4.04373
2267.05	-2.14115
2267.29	-1.19309
2267.52	-1.19817
2267.76	2.61336
2267.99	0.700092
2268.23	-1.2142
2268.47	-3.12644
2268.7	3.54564
2268.94	0.68527
2269.17	0.688229
2269.41	2.601
2269.65	-5.02508
2269.88	1.66114
2270.12	1.66885
2270.35	1.67794
2270.59	-0.224583
2270.82	0.735283
2271.06	-3.08473
2271.3	-1.16858
2271.53	3.61561
2271.77	-4.98709
2272	2.66599
2272.24	-3.0684
2272.47	-1.15342
2272.71	-0.196924
2272.95	-1.15313
2273.18	2.67465
2273.42	-2.10854
2273.65	-3.06484
2273.89	-3.06427
2274.12	0.764421
2274.36	1.72225
2274.6	0.765781
2274.83	-4.97656
2275.07	-2.10428
2275.3	-3.0605
2275.54	-0.18767
2275.77	-3.05893
2276.01	3.6417
2276.24	-2.09984
2276.48	-1.13675
2276.72	0.785164
2276.95	-2.08417
2277.18	-1.12128
2277.42	1.76005
2277.66	-1.10819
2277.89	-1.09909
2278.13	-0.129774
2278.36	-0.118904
2278.6	-2.99647
2278.83	-3.95564
2279.07	-3.95587
2279.3	0.844957
2279.54	-2.0384
2279.78	0.837315
2280.01	-1.09508
2280.24	-1.10299
2280.48	1.76741
2280.72	2.71941
2280.95	-4.95749
2281.19	-0.167482
2281.42	0.78817
2281.66	-3.04974
2281.89	0.781366
2282.13	-0.174442
2282.36	-2.09005
2282.6	-3.04557
2282.83	-0.164293
2283.07	-0.158312
2283.3	-2.07129
2283.54	-0.145086
2283.77	-2.05494
2284.01	3.71967
2284.24	-2.03343
2284.48	-1.06054
2284.71	-1.05381
2284.95	0.872683
2285.19	-3.93128
2285.42	-0.0772038
2285.65	-2.96234
2285.89	-0.0745697
2286.12	-0.0803699
2286.36	-1.05237
2286.59	-0.0914459
2286.83	1.83429
2287.06	-1.04718
2287.3	1.85237
2287.54	-0.0621796
2287.77	1.86795
2288	1.87116
2288.24	0.915644
2288.47	-0.0496559
2288.71	1.87287
2288.94	1.86869
2289.18	1.86364
2289.41	1.85505
2289.65	3.76904
2289.88	-0.0890865
2290.12	-2.02309
2290.35	2.78069
2290.59	1.81659
2290.82	3.73962
2291.06	-1.06631
2291.29	-0.100763
2291.53	-0.0934315
2291.76	-1.04634
2292	-1.04019
2292.23	-1.03539
2292.47	-1.03059
2292.7	-1.98817
2292.94	-0.055685
2293.17	4.76737
2293.41	-5.82538
2293.64	-1.96716
2293.88	-2.92775
2294.11	0.929495
2294.34	-1.96348
2294.58	-1.00228
2294.81	-1.00577
2295.05	-1.97352
2295.28	3.80282
2295.52	1.87296
2295.75	0.906477
2295.99	0.903208
2296.22	-1.02494
2296.46	-1.03037
2296.69	2.80818
2296.93	0.883045
2297.16	-2.00044
2297.39	2.81521
2297.63	0.89645
2297.86	2.82886
2298.1	4.76394
2298.33	-1.00446
2298.57	1.8926
2298.8	2.86117
2299.04	-2.91547
2299.27	-0.980227
2299.51	-0.00946045
2299.74	-2.89751
2299.97	-1.92967
2300.21	-0.964554
2300.44	0.00111771
2300.68	-1.92792
2300.91	1.9349
2301.15	0.0109253
2301.38	0.980373
2301.61	0.984488
2301.85	-0.943113
2302.08	0.0237274
2302.32	-1.90662
2302.55	0.0224876
2302.79	-0.943417
2303.02	1.95367
2303.25	0.988956
2303.49	0.988478
2303.72	-0.941004
2303.96	0.990761
2304.19	0.99461
2304.43	-3.82632
2304.66	1.9716
2304.89	0.0447216
2305.13	1.01555
2305.36	-1.87591
2305.6	0.0603027
2305.83	1.02901
2306.07	-1.86619
2306.3	1.03733
2306.53	-1.85748
2306.77	1.04451
2307	-2.81995
2307.24	-0.885876
2307.47	0.0811157
2307.7	2.01287
2307.94	2.97692
2308.17	0.0772114
2308.41	-1.85631
2308.64	-1.85707
2308.87	0.0764694
2309.11	-0.8871
2309.34	-0.881838
2309.58	0.0904369
2309.81	-1.83494
2310.04	-0.858627
2310.28	3.01745
2310.51	3.0218
2310.75	-0.845535
2310.98	0.122538
2311.21	1.08843
2311.45	-1.81779
2311.68	3.00202
2311.92	0.0866547
2312.15	-0.8869
2312.38	3.93462
2312.62	-0.894262
2312.85	1.03268
2313.08	1.03055
2313.32	0.0667706
2313.55	2.00141
2313.79	2.01168
2314.02	-0.87266
2314.25	-0.863503
2314.49	3.01074
2314.72	0.121662
2314.95	1.10023
2315.19	2.07847
2315.42	5.95482
2315.66	2.0789
2315.89	-1.79462
2316.12	1.10222
2316.36	0.129759
2316.59	-0.849333
2316.82	0.110558
2317.06	-1.82289
2317.29	-0.856337
2317.52	-1.81906
2317.76	3.01233
2317.99	-0.842001
2318.23	-2.76812
2318.46	3.02014
2318.69	0.119781
2318.93	-0.847784
2319.16	3.97655
2319.39	0.112051
2319.63	3.00484
2319.86	2.03811
2320.09	0.107687
2320.33	5.89884
2320.56	4.9363
2320.79	0.112804
2321.03	6.87225
2321.26	3.01797
2321.5	-0.837093
2321.73	4.96255
2321.96	4.00514
2322.2	5.94745
2322.43	4.99273
2322.66	5.00245
2322.9	5.97382
2323.13	8.87382
2323.36	7.91013
2323.6	8.88094
2323.83	7.91754
2324.06	8.88828
2324.3	12.7587
2324.53	10.8245
2324.76	12.7579
2325	21.4497
2325.23	23.3689
2325.46	25.2843
2325.7	31.0684
2325.93	40.7146
2326.16	53.2534
2326.4	85.0914
2326.63	119.81
2326.86	183.459
2327.09	261.55
2327.33	324.176
2327.56	317.349
2327.79	254.636
2328.03	183.261
2328.26	113.845
2328.49	87.8296
2328.73	56.0243
2328.96	46.3885
2329.19	36.7379
2329.43	32.8724
2329.66	27.0778
2329.89	24.184
2330.13	22.2563
2330.36	17.4472
2330.59	10.7024
2330.82	11.6631
2331.06	6.84494
2331.29	5.8813
2331.52	2.99485
2331.76	4.92616
2331.99	2.04169
2332.22	1.0854
2332.46	2.04151
2332.69	2.99931
2332.92	2.99528
2333.16	-1.82313
2333.39	3.95046
2333.62	2.98409
2333.85	-0.869352
2334.09	5.86561
2334.32	2.01173
2334.55	-0.879696
2334.79	1.99931
2335.02	0.0712757
2335.25	-2.81678
2335.48	2.95215
2335.72	1.98857
2335.95	1.98934
2336.18	0.0674896
2336.41	0.0661736
2336.65	1.02444
2336.88	2.94518
2337.11	-1.86429
2337.34	1.97996
2337.58	-2.82937
2337.81	0.0529842
2338.04	0.0498466
2338.28	2.9308
2338.51	-0.916378
2338.74	3.88714
2338.97	-1.88176
2339.21	0.0403233
2339.44	-1.88272
2339.67	0.0382633
2339.91	0.0360184
2340.14	0.993471
2340.37	1.94949
2340.6	0.982214
2340.84	0.0150928
2341.07	0.967819
2341.3	2.87862
2341.53	0.947437
2341.77	-0.0246105
2342	0.924831
2342.23	-0.0414448
2342.46	3.7875
2342.7	0.904194
2342.93	1.85732
2343.16	-1.02275
2343.39	3.7671
2343.63	4.72333
2343.86	0.88479
2344.09	-1.03629
2344.32	-0.0803738
2344.56	0.876987
2344.79	5.66808
2345.02	1.82936
2345.25	2.7827
2345.49	-2.97477
2345.72	-0.107214
2345.95	0.840221
2346.18	-1.08447
2346.41	-2.05089
2346.65	1.77392
2346.88	1.76821
2347.11	-0.152573
2347.34	-0.159239
2347.58	1.74903
2347.81	1.74387
2348.04	-0.174986
2348.27	1.73683
2348.5	-3.05269
2348.74	-3.05583
2348.97	2.685
2349.2	0.761749
2349.43	1.70921
2349.67	-0.222523
2349.9	0.717043
2350.13	2.60974
2350.36	-0.280457
2350.59	-3.17051
2350.83	2.5144
2351.06	-0.40889
2351.29	0.579535
2351.52	-1.24597
2351.75	2.60339
2351.99	0.625336
2352.22	0.58765
2352.45	-0.371571
2352.68	2.48817
2352.91	-0.399302
2353.15	1.47516
2353.38	1.44735
2353.61	0.493902
2353.84	1.43597
2354.07	0.469828
2354.31	0.461739
2354.54	-1.45276
2354.77	-0.502581
2355	2.35347
2355.23	0.437725
2355.47	-1.47901
2355.7	-0.537968
2355.93	-0.550144
2356.16	2.29454
2356.39	-5.33955
2356.63	-0.596331
2356.86	-1.57081
2357.09	-4.44485
2357.32	3.14834
2357.55	-3.52412
2357.79	3.11617
2358.02	-0.702042
2358.25	0.233185
2358.48	-2.63262
2358.71	-0.745783
2358.94	3.03685
2359.18	0.171455
2359.41	-0.792976
2359.64	2.04251
2359.87	-2.72296
2360.1	1.05816
2360.33	1.98819
2360.57	-1.82905
2360.8	-0.899691
2361.03	0.977705
2361.26	-0.940243
2361.49	-0.961197
2361.72	-1.93046
2361.96	0.891714
2362.19	-4.81637
2362.42	-0.101463
2362.65	2.717
2362.88	2.69426
2363.11	0.778645
2363.34	1.7038
2363.58	-2.10286
2363.81	-1.17643
2364.04	3.5343
2364.27	1.62121
2364.5	-1.23843
2364.73	-3.15175
2364.97	-4.11925
