#Acq. time (s)=	30
#Accumulations=	2
#Range (cm-¹)=	1200...2365
#Windows=	3
#Auto scanning=	Off
#Autofocus=	Off
#Macrospot=	Off
#AutoExposure=	Off
#Spike filter=	Multiple accum.
#Delay time (s)=	2
#Binning=	1
#Readout mode=	Signal
#DeNoise=	Off
#ICS correction=	On
#Dark correction=	Off
#Inst. Process=	Off
#Detector Gain=	Best Dynamic
#Detector ADC=	50 kHz HS
#Detector temperature (°C)=	-60.09
#Instrument=	LabRAM HR Evol
#Detector=	SIN-EM FIVIS
#Objective=	x100_VIS_LWD
#Grating=	1800 (450-850nm)
#ND Filter=	100%
#Laser=	532nm_Edge
#Hole=	100.021
#Temperature=	0
#Range=	Visible
#StageXY=	75x50mm Scan+
#StageZ=	Z motor
#X (µm)=	0
#Y (µm)=	0
#Z (µm)=	-48.5
#Full time(mm:ss)=	3:23
#Project=	21_11_26
#Sample=	BU19(2)w
#Site=	
#Title=	BU19(2)w-A-FF2b-FI02-V_1800 (450-850nm)_532nm_Edge_100%_x100_VIS_LWD_H100um_30sX2
#Remark=	
#Date=	26.11.2021 16:13
#Acquired=	26.11.2021 16:13:37
#Base:Fit=	16.12.2021 16:00:56
#Base:Fit=	16.12.2021 16:09:28
#Base:Sub=	16.12.2021 16:09:29
1202.72	7.46678
1203	19.5936
1203.28	7.9229
1203.56	4.78136
1203.84	8.0837
1204.11	10.33
1204.39	7.20654
1204.67	8.42216
1204.95	4.2671
1205.23	17.2819
1205.5	7.70508
1205.78	4.57502
1206.06	0.367767
1206.34	12.2573
1206.61	5.90208
1206.89	2.76711
1207.17	4.9919
1207.45	0.793152
1207.73	8.38584
1208	5.26865
1208.28	3.22849
1208.56	-0.956451
1208.84	3.41058
1209.11	-2.91992
1209.39	13.2087
1209.67	3.68189
1209.95	-1.56139
1210.23	-7.87858
1210.5	-1.37766
1210.78	-3.44616
1211.06	6.23444
1211.34	-7.57392
1211.61	4.23547
1211.89	-3.16223
1212.17	4.36639
1212.45	3.36089
1212.72	-1.89891
1213	-3.96215
1213.28	4.62518
1213.56	-3.82328
1213.83	0.512718
1214.11	8.0329
1214.39	3.86308
1214.67	0.754974
1214.94	-0.227127
1215.22	5.17578
1215.5	-1.13611
1215.78	5.32517
1216.05	1.13708
1216.33	2.25618
1216.61	4.42924
1216.89	-9.35729
1217.16	-5.06116
1217.44	-3.95024
1217.72	-2.83916
1218	4.64171
1218.27	-2.74226
1218.55	1.55347
1218.83	1.60217
1219.1	-4.70978
1219.38	-6.77369
1219.66	-0.352036
1219.94	-2.42213
1220.21	5.0496
1220.49	0.863739
1220.77	-3.32016
1221.04	2.03609
1221.32	2.0845
1221.6	0.00512695
1221.88	0.0457535
1222.15	-7.34175
1222.43	1.15858
1222.71	2.23323
1222.98	-3.04765
1223.26	0.140556
1223.54	-5.13254
1223.81	1.22736
1224.09	5.47359
1224.37	-1.90246
1224.65	1.29291
1224.92	-6.06745
1225.2	4.52312
1225.48	0.341789
1225.76	3.56098
1226.03	-0.611992
1226.31	0.494858
1226.59	-3.69291
1226.86	5.84354
1227.14	1.6441
1227.42	-6.77487
1227.69	2.72015
1227.97	4.78793
1228.25	-2.59828
1228.52	-0.500481
1228.8	-0.538513
1229.08	0.487892
1229.35	-3.68827
1229.63	7.05815
1229.91	5.15673
1230.18	-5.4352
1230.46	-0.204033
1230.74	-3.36098
1231.01	4.04959
1231.29	0.87262
1231.57	-0.301956
1231.84	-3.4132
1232.12	-3.38781
1232.4	-0.211723
1232.67	-8.60048
1232.95	1.92935
1233.23	-8.55634
1233.5	-3.28656
1233.78	0.936806
1234.06	0.963951
1234.33	2.04394
1234.61	-7.38267
1234.89	4.20822
1235.16	2.14034
1235.44	7.42244
1235.71	0.0916138
1235.99	5.37711
1236.27	-5.1115
1236.54	5.41991
1236.82	5.42783
1237.1	5.43262
1237.37	7.53377
1237.65	1.21916
1237.93	3.30814
1238.2	2.246
1238.48	-0.914948
1238.76	3.26926
1239.03	2.21319
1239.31	2.21392
1239.58	4.31398
1239.86	6.41578
1240.14	-1.96227
1240.41	2.24088
1240.69	8.54213
1240.97	1.21905
1241.24	2.28313
1241.52	5.4423
1241.79	3.34965
1242.07	2.29806
1242.35	0.203812
1242.62	3.35912
1242.9	-1.8661
1243.18	3.39459
1243.45	0.269562
1243.73	1.32577
1244	-4.95456
1244.28	4.49361
1244.56	-3.88583
1244.83	4.50348
1245.11	5.55138
1245.39	5.54122
1245.66	13.9093
1245.94	-8.10828
1246.21	9.67419
1246.49	7.57496
1246.76	4.4344
1247.04	9.67448
1247.32	-1.83521
1247.59	3.39724
1247.87	3.40099
1248.14	7.58361
1248.42	12.7883
1248.7	10.6841
1248.97	5.45535
1249.25	6.51068
1249.52	8.61301
1249.8	1.29009
1250.08	15.9339
1250.35	12.8011
1250.63	4.42085
1250.9	13.8123
1251.18	8.56989
1251.45	6.46664
1251.73	11.6793
1252.01	7.48885
1252.28	2.25453
1252.56	7.46405
1252.83	12.6713
1253.11	17.8742
1253.39	5.33563
1253.66	8.46056
1253.94	1.15858
1254.21	7.43507
1254.49	14.7599
1254.76	9.561
1255.04	3.30505
1255.31	13.7488
1255.59	3.31489
1255.87	8.5379
1256.14	16.8892
1256.42	11.6737
1256.69	12.7265
1256.97	15.8744
1257.24	19.014
1257.52	24.2329
1257.79	17.954
1258.07	34.6551
1258.35	37.7806
1258.62	30.4638
1258.9	28.3652
1259.17	23.1234
1259.45	23.1222
1259.72	26.2664
1260	24.1946
1260.27	20.0593
1260.55	33.6097
1260.82	42.9796
1261.1	49.1992
1261.37	40.824
1261.65	63.7543
1261.92	65.8615
1262.2	71.2093
1262.48	89.1764
1262.75	116.482
1263.02	122.436
1263.3	143.064
1263.58	140.88
1263.85	142.137
1264.13	137.082
1264.4	117.419
1264.68	99.734
1264.95	86.0356
1265.23	59.8689
1265.5	50.4641
1265.78	49.41
1266.05	30.5818
1266.33	47.301
1266.6	27.4581
1266.88	33.7445
1267.15	27.4955
1267.43	21.2486
1267.7	27.5516
1267.98	25.4919
1268.25	16.1096
1268.53	27.6689
1268.8	23.52
1269.08	23.5422
1269.35	25.6565
1269.63	21.4811
1269.9	17.2875
1270.18	23.5553
1270.45	22.4813
1270.73	27.6988
1271	30.8176
1271.28	23.4772
1271.55	25.5673
1271.83	31.8357
1272.1	19.291
1272.38	21.4104
1272.65	23.5358
1272.93	22.5308
1273.2	28.8465
1273.47	26.7827
1273.75	31.0076
1274.03	24.7498
1274.3	25.83
1274.57	30.0475
1274.85	29.0089
1275.12	29.0101
1275.4	32.1629
1275.67	36.3766
1275.95	29.0564
1276.22	25.9327
1276.5	25.9632
1276.77	36.4864
1277.05	28.1142
1277.32	32.3361
1277.6	40.773
1277.87	33.4533
1278.14	46.0979
1278.42	47.1806
1278.69	51.4164
1278.97	45.1503
1279.24	57.7996
1279.52	71.5055
1279.79	74.6615
1280.07	79.917
1280.34	109.356
1280.61	130.391
1280.89	171.436
1281.16	213.544
1281.44	285.172
1281.71	376.86
1281.99	517.983
1282.26	744.289
1282.53	990.709
1282.81	1319.32
1283.08	1737
1283.36	2187.49
1283.63	2534.53
1283.91	2514.67
1284.18	2126.88
1284.45	1562.42
1284.73	1024.3
1285	673.62
1285.28	434.427
1285.55	300.435
1285.83	218.197
1286.1	156.097
1286.37	128.78
1286.65	92.9859
1286.92	91.9148
1287.2	80.3442
1287.47	68.7672
1287.75	51.9173
1288.02	50.8564
1288.29	51.9093
1288.57	41.3987
1288.84	29.8401
1289.12	43.5443
1289.39	31.998
1289.66	33.085
1289.94	37.3322
1290.21	28.9453
1290.49	34.2459
1290.76	26.8875
1291.03	25.8393
1291.31	23.7436
1291.58	25.865
1291.86	32.2
1292.13	29.0534
1292.4	16.4333
1292.68	19.6163
1292.95	23.8413
1293.22	14.3733
1293.5	19.6618
1293.77	15.4966
1294.05	9.22849
1294.32	10.3371
1294.59	17.7476
1294.87	14.6034
1295.14	21.9978
1295.42	20.98
1295.69	18.9299
1295.96	15.8337
1296.24	13.8055
1296.51	9.63492
1296.79	12.8354
1297.06	18.1437
1297.33	6.52878
1297.61	17.1034
1297.88	8.65429
1298.15	4.43221
1298.43	14.9934
1298.7	11.8578
1298.97	6.59315
1299.25	13.9936
1299.52	12.9487
1299.79	11.9022
1300.07	8.75802
1300.34	11.9633
1300.62	6.71667
1300.89	13.0781
1301.16	0.428329
1301.44	11.0079
1301.71	8.92517
1301.98	8.96393
1302.25	10.0581
1302.53	0.584015
1302.8	13.2876
1303.08	10.1434
1303.35	-0.398697
1303.62	-0.380608
1303.9	4.91251
1304.17	2.82443
1304.44	3.90906
1304.72	8.16004
1304.99	5.01839
1305.26	1.869
1305.54	9.27283
1305.81	0.839027
1306.08	2.96086
1306.35	4.0255
1306.63	4.03896
1306.9	6.1701
1307.18	-4.34706
1307.45	2.01645
1307.72	8.37653
1308	5.24107
1308.27	-0.00325012
1308.54	4.25009
1308.81	8.49466
1309.09	0.0914001
1309.36	7.51849
1309.63	-0.879951
1309.91	7.60369
1310.18	6.5875
1310.45	-3.93626
1310.73	-3.90887
1311	0.344513
1311.27	1.43523
1311.55	-0.63887
1311.82	5.72968
1312.09	3.65797
1312.37	-6.85252
1312.64	-3.642
1312.91	-4.65964
1313.18	0.650803
1313.46	-2.49396
1313.73	-3.51793
1314	-1.37837
1314.28	6.0397
1314.55	8.18542
1314.82	1.89194
1315.09	0.87886
1315.37	3.03509
1315.64	2.02401
1315.91	6.29404
1316.18	2.11542
1316.46	3.20473
1316.73	3.23667
1317	-3.06638
1317.28	3.30496
1317.55	0.174019
1317.82	-0.834587
1318.09	-0.790138
1318.37	-3.9168
1318.64	-9.15836
1318.91	10.954
1319.18	2.54089
1319.46	-6.93047
1319.73	4.72604
1320	6.8749
1320.28	-1.53194
1320.55	-10.9999
1320.82	1.71309
1321.09	0.685966
1321.37	-1.40203
1321.64	4.9526
1321.91	2.858
1322.18	-1.33543
1322.46	1.85023
1322.73	-7.61176
1323	-0.197197
1323.27	0.888275
1323.55	4.07862
1323.82	5.18333
1324.09	-2.15259
1324.36	2.1087
1324.64	0.0397873
1324.91	-7.29787
1325.18	-5.14831
1325.45	-1.93761
1325.73	-1.91233
1326	5.47611
1326.27	-0.843224
1326.54	-8.2159
1326.81	-3.98211
1327.09	6.57693
1327.36	-5.98189
1327.63	-5.89522
1327.9	-2.66737
1328.18	4.77769
1328.45	-0.419624
1328.72	1.76183
1328.99	-2.3898
1329.27	5.04736
1329.54	-0.191216
1329.81	4.08204
1330.08	-6.42551
1330.35	3.10995
1330.63	-1.07259
1330.9	2.12489
1331.17	0.0455704
1331.44	1.12541
1331.71	2.19868
1331.99	-4.10487
1332.26	6.44788
1332.53	-0.893745
1332.8	5.44624
1333.07	-0.843102
1333.35	-0.819443
1333.62	-1.84504
1333.89	4.48756
1334.16	2.41364
1334.43	3.49242
1334.71	4.57212
1334.98	-2.74512
1335.25	-4.80917
1335.52	-1.62469
1335.79	-0.539078
1336.07	1.59611
1336.34	6.87794
1336.61	4.81909
1336.88	-1.43177
1337.15	-1.38961
1337.43	-1.34592
1337.7	3.93941
1337.97	0.8377
1338.24	-3.31969
1338.51	-5.37916
1338.78	1.99422
1339.06	0.986275
1339.33	5.21833
1339.6	-4.15635
1339.87	-3.05542
1340.14	1.18848
1340.42	0.194771
1340.69	4.43819
1340.96	-0.743866
1341.23	8.73222
1341.5	-0.643921
1341.77	6.73366
1342.04	-0.551346
1342.32	-1.55637
1342.59	7.90226
1342.86	0.610535
1343.13	1.6918
1343.4	-3.49444
1343.67	-2.40017
1343.95	-8.62402
1344.22	7.1165
1344.49	5.07983
1344.76	7.22534
1345.03	5.18089
1345.3	-0.0049057
1345.58	2.12521
1345.85	7.38278
1346.12	2.19453
1346.39	1.18113
1346.66	0.157936
1346.93	1.23477
1347.2	5.44226
1347.47	2.34589
1347.75	6.55241
1348.02	4.50922
1348.29	4.55538
1348.56	-2.69116
1348.83	-0.555977
1349.1	3.65736
1349.37	8.90948
1349.65	2.7009
1349.92	-0.380119
1350.19	0.705261
1350.46	-0.291504
1350.73	12.2431
1351	3.95535
1351.27	3.99407
1351.54	1.95881
1351.81	13.4372
1352.09	-0.0301361
1352.36	0.0255585
1352.63	1.13006
1352.9	7.44254
1353.17	6.48142
1353.44	7.59073
1353.71	9.793
1353.98	12.0053
1354.25	10.9486
1354.53	5.69219
1354.8	4.63825
1355.07	5.74281
1355.34	7.88475
1355.61	5.83958
1355.88	5.88463
1356.15	8.04455
1356.42	10.1865
1356.69	6.07345
1356.96	13.3956
1357.24	13.4472
1357.51	10.3825
1357.78	8.35448
1358.05	10.4781
1358.32	6.3718
1358.59	6.41772
1358.86	10.6152
1359.13	13.7713
1359.4	6.55433
1359.67	19.0486
1359.94	15.9861
1360.22	12.9145
1360.49	11.9145
1360.76	17.1333
1361.03	5.78215
1361.3	22.4097
1361.57	10.0377
1361.84	16.3093
1362.11	10.1498
1362.38	14.3432
1362.65	18.5363
1362.92	20.6589
1363.19	14.5035
1363.46	21.8164
1363.73	17.7485
1364	16.7829
1364.28	27.2117
1364.55	32.4502
1364.82	28.3608
1365.09	29.447
1365.36	25.3487
1365.63	29.5305
1365.9	15.0784
1366.17	21.33
1366.44	20.337
1366.71	26.5836
1366.98	19.3801
1367.25	28.7156
1367.52	21.5273
1367.79	26.7469
1368.06	24.7521
1368.33	32.0551
1368.6	40.3913
1368.87	81.8095
1369.15	133.571
1369.41	126.41
1369.68	84.0902
1369.95	50.0158
1370.23	38.6927
1370.5	29.4394
1370.77	24.3098
1371.04	22.2932
1371.31	25.438
1371.58	32.7043
1371.85	30.6689
1372.12	29.6617
1372.39	27.6249
1372.66	36.9366
1372.93	28.7238
1373.2	37.0164
1373.47	37.0647
1373.74	32.991
1374.01	34.073
1374.28	40.3086
1374.55	35.2112
1374.82	30.115
1375.09	35.3201
1375.36	40.5196
1375.63	39.5545
1375.9	39.6284
1376.17	37.627
1376.44	46.9662
1376.71	47.0002
1376.98	48.0652
1377.25	48.0904
1377.52	51.194
1377.79	51.2694
1378.06	43.1243
1378.33	52.4946
1378.6	52.6115
1378.87	59.9504
1379.14	59.0009
1379.41	71.4299
1379.68	73.5359
1379.95	62.2406
1380.22	81.8559
1380.49	65.3759
1380.76	80.7755
1381.03	80.7725
1381.3	81.8101
1381.57	91.1514
1381.84	98.3721
1382.11	104.527
1382.38	98.3438
1382.65	111.689
1382.92	117.847
1383.19	123.998
1383.46	137.344
1383.73	172.216
1384	171.211
1384.27	205.072
1384.54	238.976
1384.81	298.533
1385.08	349.935
1385.34	443.457
1385.61	591.489
1385.88	875.032
1386.15	1314.73
1386.42	1968.05
1386.69	3177.37
1386.96	4706.15
1387.23	5815.46
1387.5	5251.52
1387.77	3554.27
1388.04	2121.66
1388.31	1209.83
1388.58	747.85
1388.85	474.506
1389.12	344.903
1389.39	263.08
1389.66	212.854
1389.93	158.52
1390.2	137.978
1390.46	126.603
1390.73	109.165
1391	92.814
1391.27	93.8387
1391.54	79.5379
1391.81	80.6108
1392.08	81.6646
1392.35	67.349
1392.62	57.1413
1392.89	55.1346
1393.16	61.3221
1393.43	55.2267
1393.7	55.2757
1393.97	61.4663
1394.23	50.2596
1394.5	52.3588
1394.77	43.2031
1395.04	46.3283
1395.31	48.4459
1395.58	40.3355
1395.85	36.312
1396.12	39.4472
1396.39	39.504
1396.66	42.6259
1396.93	38.5802
1397.2	36.5812
1397.46	36.623
1397.73	40.7571
1398	39.7846
1398.27	33.7057
1398.54	34.7939
1398.81	37.9328
1399.08	29.8136
1399.35	38.0622
1399.62	39.1605
1399.89	36.1591
1400.16	35.2033
1400.42	35.2614
1400.69	24.0721
1400.96	30.2943
1401.23	34.4593
1401.5	34.5143
1401.77	36.6319
1402.04	38.7376
1402.31	41.901
1402.58	30.7383
1402.84	37.0025
1403.11	29.9182
1403.38	33.0826
1403.65	40.3402
1403.92	39.3726
1404.19	44.5432
1404.46	40.4423
1404.73	44.6182
1404.99	51.8484
1405.26	52.9195
1405.53	53.9837
1405.8	66.3267
1406.07	60.2115
1406.34	74.602
1406.61	86.9461
1406.87	96.2164
1407.14	115.755
1407.41	131.201
1407.68	155.877
1407.95	193.88
1408.22	226.761
1408.49	266.823
1408.76	294.585
1409.02	275.183
1409.29	227.068
1409.56	187.147
1409.83	144.141
1410.1	121.641
1410.37	80.6647
1410.63	77.6176
1410.9	58.1564
1411.17	44.8527
1411.44	42.8361
1411.71	39.8016
1411.98	32.6734
1412.25	30.6771
1412.51	28.6947
1412.78	26.7235
1413.05	27.8535
1413.32	26.9777
1413.59	25.0263
1413.86	19.8887
1414.12	14.7225
1414.39	21.9704
1414.66	16.9436
1414.93	21.1368
1415.2	16.0535
1415.47	15.0834
1415.73	17.1914
1416	16.2207
1416.27	11.1465
1416.54	17.3673
1416.81	13.3201
1417.07	7.21777
1417.34	15.4965
1417.61	21.722
1417.88	13.5636
1418.15	13.6205
1418.42	13.6752
1418.68	19.8966
1418.95	19.9532
1419.22	10.7577
1419.49	18.006
1419.76	14.9683
1420.02	11.9266
1420.29	18.1297
1420.56	13.0343
1420.83	7.93922
1421.1	11.0588
1421.36	16.2315
1421.63	17.3041
1421.9	11.2012
1422.17	13.3227
1422.44	13.396
1422.7	13.4689
1422.97	15.6108
1423.24	5.43005
1423.51	17.8876
1423.77	7.50457
1424.04	18.7125
1424.31	16.7308
1424.58	14.6686
1424.85	14.7196
1425.11	15.8134
1425.38	20.0117
1425.65	11.8656
1425.92	18.0605
1426.19	15.0562
1426.45	13.0501
1426.72	14.1144
1426.99	5.94447
1427.26	16.2302
1427.52	13.186
1427.79	6.03912
1428.06	11.1905
1428.33	11.2301
1428.59	9.22741
1428.86	6.20539
1429.13	2.16185
1429.4	1.19064
1429.67	7.39023
1429.93	5.39866
1430.2	8.5322
1430.47	1.42214
1430.74	8.65622
1431	10.7727
1431.27	8.795
1431.54	5.78386
1431.81	6.86744
1432.07	-2.32235
1432.34	9.00482
1432.61	2.88262
1432.87	7.02509
1433.14	8.08096
1433.41	9.13174
1433.68	7.10462
1433.95	10.2025
1434.21	5.11428
1434.48	2.08326
1434.75	10.3487
1435.01	6.30838
1435.28	9.43105
1435.55	6.40303
1435.82	9.52159
1436.08	6.49077
1436.35	2.43432
1436.62	5.54978
1436.89	2.51692
1437.15	7.67891
1437.42	5.67048
1437.69	4.68982
1437.95	8.8253
1438.22	-0.350033
1438.49	0.72121
1438.76	0.772892
1439.02	5.94366
1439.29	13.161
1439.56	3.98738
1439.82	12.2367
1440.09	5.11972
1440.36	8.25365
1440.63	1.12649
1440.89	6.30013
1441.16	2.24232
1441.43	2.28812
1441.69	3.35268
1441.96	4.4126
1442.23	0.349964
1442.49	1.42754
1442.76	4.54776
1443.03	2.54898
1443.3	0.533749
1443.56	4.6693
1443.83	1.62814
1444.1	2.6901
1444.36	5.80512
1444.63	4.82494
1444.9	11.0338
1445.16	9.03762
1445.43	3.96622
1445.7	4.0032
1445.97	8.14275
1446.23	-2.07919
1446.5	6.16358
1446.77	3.12306
1447.03	9.31292
1447.3	7.29772
1447.57	6.30718
1447.83	9.41627
1448.1	-0.801403
1448.37	5.38894
1448.63	2.36155
1448.9	4.46292
1449.17	9.63355
1449.43	5.56924
1449.7	7.65521
1449.97	5.63618
1450.23	4.64113
1450.5	2.62114
1450.77	3.68041
1451.03	1.6651
1451.3	5.79902
1451.57	1.73334
1451.83	-1.30775
1452.1	3.84898
1452.37	7.98098
1452.63	8.01616
1452.9	-2.19112
1453.17	5.02023
1453.43	0.964443
1453.7	2.03054
1453.97	1.04285
1454.23	-3.02282
1454.5	3.15956
1454.77	-0.902729
1455.03	-0.86644
1455.3	8.39061
1455.56	4.32449
1455.83	1.28735
1456.1	3.38096
1456.36	6.49592
1456.63	-1.66835
1456.9	-1.63675
1457.16	5.5639
1457.43	1.49269
1457.7	-0.524651
1457.96	3.60482
1458.23	-2.50882
1458.49	-0.425385
1458.76	4.73206
1459.03	5.79351
1459.29	1.73207
1459.56	0.742989
1459.82	-2.29605
1460.09	-0.214947
1460.36	1.86468
1460.62	3.94359
1460.89	11.1435
1461.16	-1.12036
1461.42	0.955196
1461.69	-4.1378
1461.95	-3.0871
1462.22	4.10431
1462.49	1.05738
1462.75	-3.01268
1463.02	1.10304
1463.28	0.101788
1463.55	6.25879
1463.82	-4.9666
1464.08	0.175468
1464.35	-7.96093
1464.61	0.272324
1464.88	-0.704281
1465.15	0.371204
1465.41	0.368237
1465.68	-6.83099
1465.94	1.33406
1466.21	2.3806
1466.48	0.383533
1466.74	-0.611145
1467.01	-1.62024
1467.27	6.56517
1467.54	1.49863
1467.8	-0.514919
1468.07	-2.52851
1468.34	1.57935
1468.6	0.587742
1468.87	0.615864
1469.13	0.6423
1469.4	1.68666
1469.67	-2.36916
1469.93	4.78857
1470.2	-0.290981
1470.46	-6.38571
1470.73	-2.28655
1470.99	-1.2444
1471.26	-3.25725
1471.53	1.8585
1471.79	-0.159492
1472.06	4.95393
1472.32	2.94128
1472.59	-1.10625
1472.85	-0.0620804
1473.12	5.05462
1473.39	-2.04907
1473.65	-8.13626
1473.92	-2.00787
1474.18	1.0668
1474.45	-0.945347
1474.71	2.13363
1474.98	-0.889519
1475.24	-0.860825
1475.51	-1.85235
1475.78	2.24322
1476.04	-2.82391
1476.31	-1.7863
1476.57	2.30489
1476.84	-1.74351
1477.1	1.32668
1477.37	-2.72397
1477.63	-1.68558
1477.9	-6.74727
1478.16	-2.65599
1478.43	5.49836
1478.69	-2.61982
1478.96	-0.5686
1479.22	-2.58353
1479.49	0.482021
1479.76	-1.53434
1480.02	-1.51959
1480.29	-2.52033
1480.55	0.534317
1480.82	-3.5145
1481.08	-0.454952
1481.35	-3.47977
1481.61	0.594242
1481.88	-1.4083
1482.14	1.66488
1482.41	1.69525
1482.67	-4.36415
1482.94	-3.32084
1483.2	-3.29896
1483.47	-5.30315
1483.73	-7.30989
1484	0.835583
1484.26	-0.159954
1484.53	-1.17046
1484.79	-2.18637
1485.06	-0.180798
1485.32	1.80808
1485.59	-0.215328
1485.85	2.80573
1486.12	0.903244
1486.38	3.97603
1486.65	1.98614
1486.91	-1.078
1487.18	6.05554
1487.44	-3.03776
1487.71	2.03619
1487.97	1.03288
1488.24	-6.04259
1488.5	0.046566
1488.77	3.09386
1489.03	-6.00671
1489.3	2.1012
1489.56	-0.920082
1489.83	-4.95163
1490.09	-5.94706
1490.36	1.15296
1490.62	0.159206
1490.89	5.23009
1491.15	1.19376
1491.42	5.2481
1491.68	-0.804573
1491.95	-1.79947
1492.21	5.29518
1492.48	-4.79556
1492.74	-1.74617
1493	-3.75288
1493.27	-4.74777
1493.53	-2.70879
1493.8	2.35988
1494.06	-2.67894
1494.33	2.39259
1494.59	-2.64234
1494.86	0.410496
1495.12	1.4362
1495.39	-1.58665
1495.65	4.48104
1495.92	-1.58011
1496.18	-0.565609
1496.45	1.46223
1496.71	3.49119
1496.97	0.473091
1497.24	-0.526302
1497.5	1.50733
1497.77	-1.50554
1498.03	0.525841
1498.3	4.57664
1498.56	2.57361
1498.82	-5.48438
1499.09	1.59641
1499.35	-2.42435
1499.62	0.620819
1499.88	0.638809
1500.15	0.656673
1500.41	2.69155
1500.68	1.69571
1500.94	-1.32041
1501.2	3.73973
1501.47	0.720467
1501.73	-0.28315
1502	-1.28132
1502.26	2.76746
1502.52	-2.26651
1502.79	0.770027
1503.05	3.80068
1503.32	-2.24671
1503.58	4.82101
1503.85	-0.215996
1504.11	-0.203506
1504.37	1.82969
1504.64	-1.18127
1504.9	-6.21099
1505.17	-1.1583
1505.43	-0.141972
1505.7	-1.14429
1505.96	1.88007
1506.22	-2.15331
1506.49	0.878105
1506.75	-3.14128
1507.02	0.901699
1507.28	1.9266
1507.54	4.9625
1507.81	-0.0627937
1508.07	-0.0520744
1508.34	-1.05157
1508.6	-2.05044
1508.86	1.99145
1509.13	-0.0116768
1509.39	-0.000511169
1509.66	3.03227
1509.92	2.03481
1510.18	2.04967
1510.45	-1.96867
1510.71	4.07978
1510.98	-1.96347
1511.24	3.07343
1511.5	-0.956635
1511.77	2.05672
1512.03	-4.99803
1512.29	0.0203552
1512.56	-3.00517
1512.82	-2.00705
1513.08	0.000717163
1513.35	2.00873
1513.61	-1.00216
1513.88	-0.996574
1514.14	0.0254478
1514.4	0.0496979
1514.67	3.07579
1514.93	-8.97383
1515.2	2.07367
1515.46	1.06667
1515.72	-4.95777
1515.99	5.07352
1516.25	4.06488
1516.51	1.05481
1516.78	3.06416
1517.04	-3.95059
1517.3	5.07846
1517.57	1.0743
1517.83	3.08771
1518.09	1.09278
1518.36	3.11334
1518.62	-2.8949
1518.88	2.12999
1519.15	1.1364
1519.41	-1.86262
1519.67	-2.85604
1519.94	0.162445
1520.2	-3.845
1520.47	-2.83856
1520.73	0.174652
1520.99	1.18652
1521.26	0.193615
1521.52	-2.80671
1521.78	-3.80269
1522.05	-2.79476
1522.31	-3.79549
1522.57	3.22857
1522.84	5.23528
1523.1	-1.78447
1523.36	3.22878
1523.62	-0.788685
1523.89	0.203285
1524.15	-1.80573
1524.41	1.19636
1524.68	1.19434
1524.94	-0.809704
1525.2	2.20407
1525.47	0.208054
1525.73	2.21739
1525.99	0.225018
1526.26	2.24087
1526.52	0.252491
1526.78	2.26994
1527.05	-1.73185
1527.31	-1.72837
1527.57	7.29058
1527.84	4.28524
1528.1	-3.7311
1528.36	4.28605
1528.63	-2.7285
1528.89	1.27854
1529.15	4.28374
1529.41	-1.72467
1529.68	1.28321
1529.94	-2.72222
1530.2	3.28381
1530.47	-0.720142
1530.73	0.288277
1530.99	-1.70357
1531.25	0.311153
1531.52	1.3225
1531.78	1.32646
1532.04	3.33072
1532.31	1.33076
1532.57	-3.68128
1532.83	2.33777
1533.09	-1.65734
1533.36	-2.64366
1533.62	-0.623596
1533.88	0.387531
1534.15	-1.61314
1534.41	1.39833
1534.67	3.4045
1534.94	-3.61782
1535.2	0.392143
1535.46	-5.62638
1535.72	1.38762
1535.99	3.37331
1536.25	0.356499
1536.51	0.349251
1536.77	-2.66675
1537.04	6.32936
1537.3	0.312229
1537.56	2.3091
1537.82	0.300343
1538.09	2.30267
1538.35	3.29543
1538.61	1.28373
1538.87	-2.71777
1539.14	0.278366
1539.4	2.29005
1539.66	-0.686047
1539.92	-4.66091
1540.19	1.36738
1540.45	0.383606
1540.71	-0.600548
1540.97	-1.59184
1541.24	0.418793
1541.5	-1.60218
1541.76	-3.60832
1542.02	-2.61563
1542.29	2.38491
1542.55	-2.63351
1542.81	-4.64529
1543.07	1.35367
1543.34	2.34552
1543.6	1.33456
1543.86	0.320839
1544.12	3.30734
1544.39	2.30913
1544.65	1.31141
1544.91	-0.680885
1545.17	-0.669266
1545.43	-0.660961
1545.7	-3.64949
1545.96	-0.637592
1546.22	-0.632954
1546.48	2.37607
1546.74	0.369678
1547.01	-0.630718
1547.27	1.37674
1547.53	5.38879
1547.79	1.3846
1548.06	1.37477
1548.32	-0.650181
1548.58	1.35147
1548.84	4.35684
1549.1	-0.639557
1549.37	1.32473
1549.63	1.28109
1549.89	-0.728218
1550.15	-4.70789
1550.42	2.33529
1550.68	0.392494
1550.94	2.44273
1551.2	4.49184
1551.46	-4.5755
1551.73	0.446983
1551.99	-3.5783
1552.25	-0.580502
1552.51	-0.564602
1552.77	-2.55909
1553.03	-2.56567
1553.3	3.44604
1553.56	1.40605
1553.82	0.394436
1554.08	3.39837
1554.34	4.39053
1554.61	0.365501
1554.87	2.35447
1555.13	4.34125
1555.39	3.3317
1555.65	0.321507
1555.91	-0.682674
1556.18	1.3211
1556.44	3.32281
1556.7	3.31388
1556.96	3.31202
1557.22	4.31413
1557.48	-0.694645
1557.75	0.305328
1558.01	-1.70292
1558.27	-4.71719
1558.53	2.27779
1558.79	3.26558
1559.06	1.24693
1559.32	-2.76985
1559.58	0.217731
1559.84	0.206169
1560.1	-0.803455
1560.36	-1.8115
1560.63	0.180519
1560.89	1.17374
1561.15	0.168949
1561.41	2.16416
1561.67	-3.83229
1561.93	1.16911
1562.19	0.177406
1562.46	0.186222
1562.72	5.18416
1562.98	0.178226
1563.24	1.17174
1563.5	0.170361
1563.76	1.16311
1564.02	-2.84239
1564.29	1.16837
1564.55	-1.82104
1564.81	-1.81974
1565.07	-5.82869
1565.33	0.149437
1565.59	-2.91979
1565.85	0.970856
1566.11	-2.06881
1566.38	-2.91484
1566.64	0.126293
1566.9	-1.89698
1567.16	-1.92587
1567.42	0.10083
1567.68	-3.86953
1567.94	-1.88104
1568.2	-0.911949
1568.47	-6.90956
1568.73	-5.9089
1568.99	0.0894165
1569.25	2.08141
1569.51	3.06147
1569.77	1.04964
1570.03	4.04388
1570.29	2.04463
1570.55	1.04217
1570.82	1.0387
1571.08	1.03379
1571.34	-1.9702
1571.6	-0.978512
1571.86	3.00763
1572.12	1.99688
1572.38	-0.00645828
1572.64	-0.0157509
1572.9	1.96939
1573.17	-1.03634
1573.43	-1.04615
1573.69	1.93753
1573.95	-0.0687332
1574.21	2.92187
1574.47	-2.06569
1574.73	-4.05814
1574.99	0.939445
1575.25	-2.05129
1575.51	-4.04486
1575.78	-5.04202
1576.04	-0.0478821
1576.3	2.94271
1576.56	-0.060463
1576.82	1.92884
1577.08	-3.08325
1577.34	-1.10511
1577.6	1.87062
1577.86	-6.13084
1578.12	4.82598
1578.38	-2.17228
1578.64	-5.17493
1578.9	2.79385
1579.17	0.794914
1579.43	2.78378
1579.69	-1.20821
1579.95	-1.21064
1580.21	-1.20965
1580.47	-2.20871
1580.73	-3.20991
1580.99	-0.224609
1581.25	-2.22808
1581.51	0.751846
1581.77	1.73847
1582.03	3.71841
1582.29	3.70424
1582.55	1.70362
1582.81	0.699657
1583.07	-0.304504
1583.33	1.68056
1583.59	-0.317654
1583.85	-1.31955
1584.11	-1.3283
1584.38	0.65863
1584.64	2.64938
1584.9	1.6513
1585.16	0.652027
1585.42	-2.34159
1585.68	2.63171
1585.94	-3.35046
1586.2	2.61672
1586.46	3.59753
1586.72	3.58181
1586.98	-1.40741
1587.24	0.5728
1587.5	0.563511
1587.76	2.54501
1588.02	-0.446789
1588.28	6.51305
1588.54	3.52689
1588.8	-1.44862
1589.06	-1.44783
1589.32	4.52432
1589.58	-3.43895
1589.84	4.52435
1590.1	3.52536
1590.36	0.533401
1590.62	2.52317
1590.88	-2.45588
1591.14	-1.46136
1591.4	5.50377
1591.66	-2.46854
1591.92	3.49883
1592.18	0.50222
1592.44	-2.49834
1592.7	-1.52013
1592.96	0.455692
1593.22	-1.54512
1593.48	0.424557
1593.74	-1.58471
1594	-0.612141
1594.26	0.366039
1594.52	-1.63091
1594.78	6.31012
1595.04	7.3041
1595.3	5.32169
1595.56	0.354477
1595.82	6.31173
1596.08	4.29906
1596.34	-3.65257
1596.6	-1.67109
1596.86	-3.66211
1597.12	-0.685818
1597.38	5.27207
1597.64	2.29096
1597.9	-2.67773
1598.16	-8.6444
1598.42	1.28152
1598.68	0.275978
1598.94	0.260071
1599.2	2.23066
1599.46	-1.75222
1599.72	2.20573
1599.98	1.20148
1600.24	4.16558
1600.5	-0.805809
1600.76	3.14831
1601.02	-0.832905
1601.28	2.12329
1601.54	6.06749
1601.8	7.03806
1602.06	2.06946
1602.32	6.01575
1602.58	8.97141
1602.84	-1.92949
1603.1	-2.93296
1603.36	-0.967773
1603.62	-0.979836
1603.88	4.94338
1604.14	5.92364
1604.4	2.95173
1604.66	0.970333
1604.92	3.9332
1605.17	2.94031
1605.43	-0.0297279
1605.69	-2.99931
1605.95	3.92156
1606.21	5.90022
1606.47	-1.02229
1606.73	1.94616
1606.99	3.92486
1607.25	-1.99122
1607.51	-0.0143623
1607.77	2.94717
1608.03	-1.86127
1608.29	3.76784
1608.55	6.51026
1608.81	0.92194
1609.07	0.958565
1609.32	-0.233505
1609.58	2.86906
1609.84	-0.419689
1610.1	0.0970306
1610.36	2.59219
1610.62	4.20076
1610.88	5.8839
1611.14	4.14872
1611.4	7.64531
1611.66	-0.455185
1611.92	-0.50655
1612.18	2.06342
1612.44	-0.831909
1612.69	5.64666
1612.95	0.220337
1613.21	-3.39317
1613.47	-0.919773
1613.73	2.23097
1613.99	3.20441
1614.25	4.00261
1614.51	2.72806
1614.77	2.72545
1615.03	0.0944748
1615.29	-1.57915
1615.54	0.829311
1615.8	4.68017
1616.06	-1.66884
1616.32	1.95443
1616.58	1.84003
1616.84	-1.25919
1617.1	5.43623
1617.36	4.82977
1617.62	0.895687
1617.88	1.44782
1618.13	1.71758
1618.39	2.29567
1618.65	3.29978
1618.91	5.91851
1619.17	4.17617
1619.43	4.03217
1619.69	1.29516
1619.95	3.3602
1620.2	3.54326
1620.46	1.29077
1620.72	4.98863
1620.98	3.37614
1621.24	4.09513
1621.5	3.57129
1621.76	2.99922
1622.02	4.53251
1622.27	3.3001
1622.53	3.92734
1622.79	2.53048
1623.05	3.91227
1623.31	3.10186
1623.57	0.867367
1623.83	-0.244247
1624.09	1.87726
1624.34	2.88624
1624.6	1.14895
1624.86	3.37602
1625.12	2.89932
1625.38	3.80193
1625.64	3.32819
1625.9	1.51304
1626.15	-0.891308
1626.41	3.54575
1626.67	6.00311
1626.93	5.34496
1627.19	4.15478
1627.45	3.53373
1627.7	2.92393
1627.96	3.614
1628.22	1.42823
1628.48	1.61108
1628.74	1.68797
1629	5.73893
1629.26	1.6211
1629.51	1.57504
1629.77	2.86309
1630.03	2.74456
1630.29	1.71837
1630.55	4.18148
1630.81	3.24456
1631.06	2.70775
1631.32	2.61827
1631.53	-0.447018
1631.79	8.42267
1632.05	8.42899
1632.31	7.44915
1632.57	9.41523
1632.84	2.52593
1633.1	2.54454
1633.36	1.54123
1633.62	5.45958
1633.88	4.46691
1634.14	7.42702
1634.4	10.389
1634.66	-0.45298
1634.93	3.48856
1635.19	4.47141
1635.45	3.48188
1635.71	2.49154
1635.97	5.44254
1636.23	5.43589
1636.49	2.47245
1636.75	7.39112
1637.02	6.39776
1637.28	4.41869
1637.54	5.39352
1637.8	4.40286
1638.06	1.44571
1638.32	5.37817
1638.58	-0.534672
1638.84	4.38226
1639.1	1.42796
1639.37	1.42634
1639.63	3.39293
1639.89	-2.5151
1640.15	2.40431
1640.41	2.4012
1640.67	5.35392
1640.93	0.438194
1641.19	1.42671
1641.46	4.38097
1641.72	2.4072
1641.98	1.41673
1642.24	0.428009
1642.5	4.36226
1642.76	11.2498
1643.02	4.35587
1643.28	4.35312
1643.54	5.33518
1643.8	0.411476
1644.06	5.32805
1644.33	3.35386
1644.59	1.37824
1644.85	3.33943
1645.11	0.385693
1645.37	2.35547
1645.63	2.36005
1645.89	0.394142
1646.15	8.26654
1646.41	6.29297
1646.67	2.35118
1646.93	0.378445
1647.19	3.32624
1647.46	1.35391
1647.72	0.365257
1647.98	7.24498
1648.24	1.34294
1648.5	4.29426
1648.76	5.28495
1649.02	5.29307
1649.28	8.26793
1649.54	3.35422
1649.8	1.3803
1650.06	-0.593273
1650.32	4.3277
1650.58	2.37107
1650.85	3.36569
1651.11	1.40325
1651.37	5.35183
1651.63	5.35745
1651.89	5.35983
1652.15	6.34541
1652.41	-1.5382
1652.67	2.4053
1652.93	0.43034
1653.19	5.352
1653.45	0.423466
1653.71	6.33518
1653.97	-1.54491
1654.23	1.41521
1654.49	6.3454
1654.75	5.36201
1655.01	2.40862
1655.27	1.42851
1655.53	5.3807
1655.8	1.4492
1656.06	1.46418
1656.32	0.487576
1656.57	1.48126
1656.84	5.43375
1657.1	5.43639
1657.36	1.48734
1657.62	-1.47665
1657.88	6.41521
1658.14	3.45236
1658.4	5.42348
1658.66	0.486027
1658.92	1.46777
1659.18	-1.49653
1659.44	-2.48754
1659.7	1.45241
1659.96	0.461323
1660.22	3.41096
1660.48	2.42964
1660.74	3.422
1661	2.44357
1661.26	7.38367
1661.52	-0.498425
1661.78	2.47086
1662.04	2.47561
1662.3	0.506306
1662.56	0.471516
1662.82	4.49909
1663.08	-0.398689
1663.34	3.53489
1663.6	3.53147
1663.86	5.49812
1664.12	3.43587
1664.38	2.49535
1664.64	6.45618
1664.9	2.51244
1665.16	0.559162
1665.42	2.54496
1665.68	-1.44618
1665.94	1.47866
1666.2	4.55066
1666.46	-1.37121
1666.72	2.58167
1666.98	1.538
1667.24	2.39819
1667.5	3.50959
1667.76	5.47628
1668.02	0.536831
1668.28	1.52151
1668.54	7.43613
1668.8	0.533318
1669.06	1.54037
1669.32	0.577972
1669.58	2.55997
1669.84	5.5264
1670.1	4.54258
1670.36	-1.38572
1670.62	4.5428
1670.88	3.57961
1671.14	1.61919
1671.4	0.629074
1671.66	4.58199
1671.92	-2.33575
1672.18	5.57551
1672.44	-2.32581
1672.69	-1.33344
1672.95	-1.33095
1673.21	0.64859
1673.47	0.652454
1673.73	-3.29742
1673.99	4.61712
1674.25	0.669483
1674.51	2.65559
1674.77	8.59789
1675.03	-0.295517
1675.29	2.68291
1675.55	1.7028
1675.81	-2.24903
1676.07	1.7131
1676.33	1.71557
1676.59	3.69947
1676.85	2.71518
1677.11	-2.22917
1677.37	-0.247017
1677.63	-0.245922
1677.89	1.73307
1678.14	1.73064
1678.4	0.736885
1678.66	1.72073
1678.92	3.69455
1679.18	-1.25156
1679.44	-3.22988
1679.7	3.69039
1679.96	-1.25257
1680.22	-3.2295
1680.48	4.67752
1680.74	-0.264099
1681	1.71181
1681.26	-0.264008
1681.52	-2.23799
1681.78	-1.24695
1682.03	-1.24347
1682.29	-0.251766
1682.55	-2.22338
1682.81	4.69694
1683.07	1.73536
1683.33	1.73819
1683.59	2.72957
1683.85	0.757809
1684.11	-0.227051
1684.37	2.73795
1684.63	1.74809
1684.89	-0.226254
1685.14	-1.21156
1685.4	3.72879
1685.66	-4.16741
1685.92	1.76143
1686.18	-0.208862
1686.44	0.783859
1686.7	3.75423
1686.96	3.76734
1687.22	0.812515
1687.48	-1.15794
1687.73	-0.168446
1687.99	-1.15611
1688.25	2.79461
1688.51	-0.167252
1688.77	-0.166817
1689.03	7.73035
1689.29	-4.11952
1689.55	0.813808
1689.81	-0.175102
1690.06	-3.13742
1690.32	2.77724
1690.58	-1.16554
1690.84	0.820946
1691.1	7.73721
1691.36	-0.147247
1691.62	-3.10052
1691.88	1.84255
1692.13	0.864231
1692.39	-4.0654
1692.65	-3.07534
1692.91	-1.10192
1693.17	-5.05021
1693.43	-0.120911
1693.69	-1.11216
1693.95	2.82498
1694.2	-2.106
1694.46	1.83369
1694.72	-3.09533
1694.98	-3.0952
1695.24	-0.135277
1695.5	0.857471
1695.76	-0.120033
1696.01	-0.112339
1696.27	1.86636
1696.53	0.892048
1696.79	-1.06972
1697.05	-4.02095
1697.31	3.8647
1697.57	-3.03414
1697.82	0.902321
1698.08	3.85175
1698.34	-1.074
1698.6	-4.02774
1698.86	-0.09095
1699.12	-2.05846
1699.38	-0.0873451
1699.63	-2.05037
1699.89	-2.04248
1700.15	-1.05229
1700.41	0.922321
1700.67	-5.96589
1700.92	3.87672
1701.18	3.88084
1701.44	-2.01779
1701.7	2.90315
1701.96	1.91905
1702.22	3.88365
1702.47	-2.0163
1702.73	-2.01735
1702.99	3.87847
1703.25	1.91692
1703.51	-0.0432053
1703.77	-4.95228
1704.02	0.945618
1704.28	-3.9625
1704.54	-0.0230103
1704.8	-0.0115318
1705.06	-3.93464
1705.32	-0.981979
1705.57	-3.92563
1705.83	-1.95404
1706.09	0.017601
1706.35	5.91265
1706.61	-2.93011
1706.86	-1.94986
1707.12	-6.86104
1707.38	2.95266
1707.64	-0.974667
1707.9	0.00302887
1708.16	-0.002388
1708.41	-0.988163
1708.67	-2.95339
1708.93	-1.97976
1709.19	-0.0259399
1709.44	-7.86117
1709.7	1.93134
1709.96	1.93532
1710.22	1.94154
1710.48	-5.88246
1710.73	-4.89556
1710.99	2.94669
1711.25	-3.89481
1711.51	0.0326576
1711.77	-3.87459
1712.02	-0.926556
1712.28	2.0195
1712.54	2.02216
1712.8	-0.919327
1713.06	0.0512505
1713.31	-0.936291
1713.57	1.98971
1713.83	-5.83788
1714.09	1.97453
1714.34	0.997395
1714.6	0.0228004
1714.86	-1.92702
1715.12	1.00831
1715.38	-3.86858
1715.63	3.95948
1715.89	-3.84065
1716.15	3.98312
1716.41	-0.897995
1716.66	2.0346
1716.92	0.0801964
1717.18	3.98238
1717.44	-1.88106
1717.69	1.03802
1717.95	-0.924061
1718.21	2.96609
1718.47	2.95796
1718.72	-7.76195
1718.98	-1.91835
1719.24	1.00574
1719.5	1.01252
1719.75	0.0460854
1720.01	2.97228
1720.27	-2.85903
1720.53	-1.8762
1720.78	2.02234
1721.04	1.04942
1721.3	3.96601
1721.56	1.04607
1721.81	-0.899467
1722.07	-2.84517
1722.33	-1.87376
1722.59	2.01292
1722.84	3.9542
1723.1	-0.905628
1723.36	0.0657043
1723.62	-2.84644
1723.87	-0.900513
1724.13	1.04911
1724.39	2.9957
1724.64	-1.85311
1724.9	-1.85095
1725.16	1.05912
1725.42	2.02199
1725.67	-1.86322
1725.93	-0.89933
1726.19	-2.83868
1726.45	2.97948
1726.7	0.0831795
1726.96	0.0883636
1727.22	1.05976
1727.47	4.92833
1727.73	2.99832
1727.99	0.109871
1728.24	-0.853127
1728.5	5.9287
1728.76	-1.82499
1729.02	-0.899303
1729.27	1.94849
1729.53	2.89917
1729.79	-0.930813
1730.05	2.95989
1730.3	1.05148
1730.56	1.03624
1730.82	1.99938
1731.07	5.86496
1731.33	1.0904
1731.59	-0.831535
1731.84	0.143913
1732.1	4.01721
1732.36	-2.74165
1732.61	0.162235
1732.87	-0.799641
1733.13	0.169212
1733.39	4.033
1733.64	-5.62668
1733.9	4.98595
1734.16	-1.77659
1734.41	3.04329
1734.67	2.07496
1734.93	0.142998
1735.18	0.139282
1735.44	3.98874
1735.7	3.02261
1735.95	3.98545
1736.21	2.0624
1736.47	-0.820229
1736.72	-0.815479
1736.98	1.11281
1737.24	0.154018
1737.49	2.08111
1737.75	-1.76315
1738.01	3.04971
1738.26	1.12807
1738.52	-0.794254
1738.78	4.01262
1739.03	2.09058
1739.29	-0.792446
1739.55	-2.71527
1739.8	-2.7196
1740.06	2.07194
1740.32	3.98236
1740.57	1.09876
1740.83	1.09538
1741.09	2.05306
1741.34	-3.69595
1741.6	3.9688
1741.86	0.138142
1742.11	3.01343
1742.37	-2.72698
1742.63	2.06685
1742.88	-1.75697
1743.14	1.11984
1743.4	0.169003
1743.65	4.00536
1743.91	1.13883
1744.16	0.182861
1744.42	1.14189
1744.68	0.18837
1744.93	-1.7185
1745.19	4.02914
1745.45	-1.70045
1745.7	-1.6917
1745.96	2.14114
1746.22	2.14499
1746.47	-1.67868
1746.73	5.96821
1746.98	1.186
1747.24	1.18596
1747.5	4.04924
1747.75	0.229042
1748.01	0.229126
1748.27	8.82485
1748.52	2.15073
1748.78	1.20554
1749.03	0.261276
1749.29	-1.63668
1749.55	0.285759
1749.8	6.98531
1750.06	1.27195
1750.32	-1.57657
1750.57	-5.38187
1750.83	-2.49895
1751.08	4.20387
1751.34	5.17344
1751.6	3.27148
1751.85	3.27517
1752.11	2.31696
1752.36	5.17989
1752.62	4.224
1752.88	5.17897
1753.13	6.13301
1753.39	6.1323
1753.64	1.36151
1753.9	7.08871
1754.15	-0.541389
1754.41	2.3208
1754.67	4.22811
1754.92	0.416977
1755.18	4.23378
1755.43	5.1911
1755.69	0.429409
1755.95	-0.520889
1756.2	9.95985
1756.46	2.33762
1756.71	2.33598
1756.97	2.33225
1757.23	-1.47774
1757.48	2.32613
1757.74	2.33026
1757.99	2.33429
1758.25	3.29676
1758.5	1.41457
1758.76	5.23303
1759.02	1.43673
1759.27	1.446
1759.53	3.3585
1759.78	4.32105
1760.04	6.23244
1760.3	1.48034
1760.55	7.19469
1760.81	5.29658
1761.06	3.39804
1761.32	5.30265
1761.57	-1.35347
1761.83	2.45215
1762.08	2.45612
1762.34	1.51136
1762.6	5.32081
1762.85	5.3367
1763.11	2.49771
1763.36	-1.29599
1763.62	2.51443
1763.87	4.42617
1764.13	4.43788
1764.38	5.40194
1764.64	1.61455
1764.89	7.34695
1765.15	5.45914
1765.4	2.61786
1765.66	3.58228
1765.92	4.54573
1766.17	0.747688
1766.43	2.66068
1766.68	2.66809
1766.94	3.62564
1767.19	1.72778
1767.45	7.4472
1767.7	3.645
1767.96	4.59988
1768.21	3.65078
1768.47	4.60623
1768.73	7.46544
1768.98	3.66574
1769.24	0.805229
1769.49	4.59478
1769.75	4.58235
1770	3.62735
1770.26	1.73795
1770.51	3.65514
1770.77	5.5738
1771.02	8.43335
1771.28	1.79417
1771.53	5.61458
1771.79	3.7367
1772.04	6.60299
1772.3	-0.0426826
1772.55	4.72736
1772.81	4.74422
1773.06	6.66196
1773.32	7.62729
1773.57	7.64096
1773.83	0.0396652
1774.08	5.76288
1774.34	2.91876
1774.59	1.02544
1774.85	7.7002
1775.1	4.85814
1775.36	4.86979
1775.61	3.93307
1775.87	4.91258
1776.12	6.83797
1776.38	2.08538
1776.63	2.09522
1776.89	6.86827
1777.14	5.91799
1777.4	7.82509
1777.65	4.01698
1777.91	4.97089
1778.16	5.92441
1778.42	-1.69436
1778.67	6.87786
1778.93	4.02089
1779.18	8.77747
1779.44	5.91862
1779.69	7.82266
1779.95	4.02472
1780.2	1.18952
1780.46	5.00714
1780.71	4.06649
1780.97	-0.681202
1781.22	1.23438
1781.47	6.00323
1781.73	6.96523
1781.98	4.12079
1782.24	7.94345
1782.49	8.91103
1782.75	0.355717
1783	3.22774
1783.26	2.28743
1783.51	6.11178
1783.77	9.93792
1784.02	3.2788
1784.28	4.24589
1784.53	4.26112
1784.79	1.41765
1785.04	4.29344
1785.29	9.07525
1785.55	7.17489
1785.8	3.36419
1786.06	4.32192
1786.31	3.37163
1786.57	5.28787
1786.82	-0.424744
1787.08	3.40528
1787.33	1.51271
1787.58	0.576073
1787.84	5.37246
1788.09	2.53819
1788.35	0.658039
1788.6	4.51614
1788.86	5.49814
1789.11	-1.18904
1789.37	6.48789
1789.62	3.63732
1789.87	2.69659
1790.13	5.58433
1790.38	8.47291
1790.64	5.61029
1790.89	5.61823
1791.15	3.70653
1791.4	2.74671
1791.65	4.64637
1791.91	-3.01175
1792.16	3.6961
1792.42	3.70398
1792.67	1.79756
1792.93	-0.108593
1793.18	2.77705
1793.43	0.871609
1793.69	-1.99426
1793.94	4.71966
1794.2	3.77407
1794.45	5.69931
1794.7	0.914738
1794.96	2.83249
1795.21	1.89218
1795.47	2.88748
1795.72	-0.923996
1795.97	6.77108
1796.23	2.94486
1796.48	6.7998
1796.74	7.77539
1796.99	1.06684
1797.25	3.00286
1797.5	-0.826862
1797.75	-2.73662
1798.01	-5.60921
1798.26	3.05361
1798.51	-1.74336
1798.77	4.03488
1799.02	1.15736
1799.28	4.04671
1799.53	1.16499
1799.78	1.16606
1800.04	-1.71761
1800.29	0.20483
1800.55	4.04952
1800.8	1.16956
1801.05	-3.62995
1801.31	2.13791
1801.56	-4.58016
1801.81	1.18942
1802.07	-0.723789
1802.32	2.16693
1802.58	2.1771
1802.83	3.1494
1803.08	1.24032
1803.34	0.292835
1803.59	-3.53875
1803.84	-0.641991
1804.1	1.29097
1804.35	-0.624172
1804.61	1.31038
1804.86	-5.4109
1805.11	-0.587841
1805.37	-1.53632
1805.62	2.32923
1805.87	1.38169
1806.13	0.432606
1806.38	0.445129
1806.64	-0.506584
1806.89	-1.4594
1807.14	4.33213
1807.4	0.484463
1807.65	3.38226
1807.9	-2.39439
1808.16	1.46727
1808.41	2.43771
1808.66	0.51685
1808.92	3.4156
1809.17	-1.39679
1809.42	5.35832
1809.68	0.545467
1809.93	4.40912
1810.18	0.560135
1810.44	0.567127
1810.69	0.573246
1810.94	1.54134
1811.2	3.47337
1811.45	-0.3778
1811.7	2.51924
1811.96	2.52435
1812.21	1.56628
1812.46	4.46596
1812.72	3.5116
1812.97	0.629471
1813.22	2.57039
1813.48	0.651943
1813.73	4.51853
1813.98	-0.294899
1814.24	2.61355
1814.49	6.49052
1814.74	1.67919
1815	4.59456
1815.25	-5.05424
1815.5	-0.212643
1815.76	4.62762
1816.01	1.7355
1816.26	1.74239
1816.52	1.74948
1816.77	-0.17622
1817.02	4.66498
1817.27	2.73439
1817.53	-2.09871
1817.78	1.75534
1818.03	-2.11502
1818.29	0.788944
1818.54	-0.165733
1818.79	-1.11774
1819.05	-0.141129
1819.3	2.76105
1819.55	-0.130722
1819.8	2.77793
1820.06	-2.04628
1820.31	1.82856
1820.56	2.80443
1820.82	-2.988
1821.07	0.888725
1821.32	1.86395
1821.58	5.7431
1821.83	-1.01864
1822.08	2.86148
1822.33	0.934784
1822.59	1.91047
1822.84	0.949459
1823.09	0.955891
1823.34	-2.91032
1823.6	1.93377
1823.85	-0.00101471
1824.1	6.77504
1824.36	-0.964748
1824.61	0.978092
1824.86	0.98547
1825.11	0.0246239
1825.37	2.93694
1825.62	-1.89658
1825.87	4.88887
1826.12	-3.82228
1826.38	-0.913074
1826.63	2.96545
1826.88	0.0649986
1827.14	2.0068
1827.39	7.8246
1827.64	-1.85428
1827.89	5.90362
1828.15	3.97371
1828.4	2.03992
1828.65	4.94883
1828.9	-1.83276
1829.16	2.04086
1829.41	5.91532
1829.66	3.01187
1829.91	3.01403
1830.17	3.01546
1830.42	1.07793
1830.67	6.88673
1830.92	6.88586
1831.18	4.95325
1831.43	3.02464
1831.68	4.00153
1831.93	2.07325
1832.19	2.08126
1832.44	-1.78582
1832.69	1.12883
1832.94	5.98486
1833.2	1.14766
1833.45	1.15156
1833.7	5.03277
1833.95	2.13143
1834.2	4.07516
1834.46	1.17233
1834.71	2.13546
1834.96	-0.787075
1835.21	5.97719
1835.47	3.05799
1835.72	4.01734
1835.97	4.977
1836.22	0.142979
1836.48	1.10487
1836.73	3.19397
1836.98	-1.66245
1837.23	3.14408
1837.48	6.03626
1837.74	3.10492
1837.99	8.89106
1838.24	4.01551
1838.49	2.06206
1838.74	3.99228
1839	-1.74717
1839.25	2.1529
1839.5	-2.67515
1839.75	-0.730236
1840	3.15319
1840.26	2.1956
1840.51	-0.74107
1840.76	-3.66562
1841.01	6.9577
1841.27	1.13873
1841.52	4.02296
1841.77	-2.75281
1842.02	-2.76342
1842.27	4.94786
1842.53	3.97184
1842.78	2.03232
1843.03	5.8992
1843.28	5.89722
1843.53	4.93915
1843.78	0.117378
1844.04	3.0132
1844.29	0.117519
1844.54	-2.77442
1844.79	2.05458
1845.04	8.8098
1845.3	-1.80522
1845.55	0.126884
1845.8	1.09343
1846.05	1.10979
1846.3	2.09238
1846.55	0.176792
1846.81	1.16919
1847.06	5.01469
1847.31	-1.79208
1847.56	3.932
1847.81	1.03304
1848.07	-1.85265
1848.32	0.0913506
1848.57	1.0723
1848.82	-0.870667
1849.07	0.0845032
1849.32	2.97536
1849.57	2.00662
1849.83	1.9974
1850.08	0.0630302
1850.33	2.93942
1850.58	-3.80349
1850.83	0.0332031
1851.09	-2.85742
1851.34	0.979588
1851.59	-0.947128
1851.84	8.65269
1852.09	0.00673676
1852.34	0.96624
1852.59	0.966774
1852.84	-2.87324
1853.1	0.968403
1853.35	0.00795746
1853.6	4.80725
1853.85	1.92354
1854.1	-1.92229
1854.35	1.9077
1854.6	-0.0220108
1854.86	-0.0311737
1855.11	-0.994831
1855.36	-1.95807
1855.61	-1.00856
1855.86	-0.0608902
1856.11	-1.02481
1856.36	-1.98526
1856.61	-0.0709534
1856.87	-1.02841
1857.12	0.887321
1857.37	-2.94503
1857.62	-1.03217
1857.87	-1.99345
1858.12	-0.0822868
1858.37	1.82716
1858.63	-1.05134
1858.88	-6.80022
1859.13	4.67364
1859.38	1.79485
1859.63	-1.08299
1859.88	-2.04488
1860.13	-1.08968
1860.38	-3.95766
1860.63	-0.131535
1860.89	-4.90656
1861.14	-2.98871
1861.39	-2.02768
1861.64	1.80527
1861.89	-0.103039
1862.14	-1.05845
1862.39	0.853405
1862.64	-1.06579
1862.9	-1.07328
1863.15	-2.03791
1863.4	-3.00214
1863.65	2.72571
1863.9	2.71725
1864.15	-0.157032
1864.4	-2.07454
1864.65	-3.03596
1864.9	3.64299
1865.15	0.770023
1865.4	-0.194164
1865.66	0.749226
1865.91	1.6908
1866.16	4.53712
1866.41	4.5201
1866.66	-0.261353
1866.91	-2.18123
1867.16	0.660477
1867.41	5.40332
1867.66	-2.22262
1867.91	-0.33107
1868.16	1.56367
1868.41	-0.342785
1868.67	-1.29679
1868.92	-2.24796
1869.17	2.50621
1869.42	-2.24873
1869.67	-0.350239
1869.92	-0.353539
1870.17	-0.356697
1870.42	-0.359657
1870.67	0.587837
1870.92	-1.31568
1871.17	-4.16899
1871.42	0.581123
1871.67	0.577248
1871.92	0.571899
1872.17	-1.3356
1872.42	0.558857
1872.68	-4.19532
1872.93	-2.30302
1873.18	2.43629
1873.43	-2.31703
1873.68	-4.21869
1873.93	2.42193
1874.18	-0.432186
1874.43	-0.44025
1874.68	0.499214
1874.93	-4.25357
1875.18	-5.21128
1875.43	-2.37712
1875.68	-1.44019
1875.93	1.38835
1876.18	-3.36754
1876.43	1.35165
1876.68	0.392609
1876.93	-2.45568
1877.18	-1.51634
1877.43	1.30139
1877.68	0.332977
1877.93	-2.53982
1878.18	1.26199
1878.44	-1.45442
1878.69	-2.44904
1878.93	-6.25028
1879.19	-2.47175
1879.44	1.34425
1879.69	-6.22089
1879.94	-1.49601
1880.19	4.17281
1880.44	1.32818
1880.69	-1.51679
1880.94	-3.40566
1881.19	3.21227
1881.44	1.31459
1881.69	-3.43424
1881.94	0.331348
1882.19	4.09293
1882.44	-2.54424
1882.69	-8.23108
1882.94	0.241005
1883.19	-2.60159
1883.44	-0.741993
1883.69	4.22354
1883.94	4.99845
1884.19	-0.761452
1884.44	3.95076
1884.69	-1.68726
1884.94	1.1201
1885.19	1.1307
1885.44	-1.68382
1885.69	-0.738453
1885.94	3.98119
1886.19	-4.49969
1886.44	2.11475
1886.69	-2.60482
1886.94	-1.66659
1887.19	1.14864
1887.44	3.02524
1887.69	4.90061
1887.94	0.171268
1888.19	2.98859
1888.44	2.03206
1888.69	-1.7552
1888.94	-4.59611
1889.19	0.100349
1889.44	1.96951
1889.69	-1.80533
1889.94	1.01432
1890.19	-1.81452
1890.44	-0.873341
1890.69	2.89748
1890.94	-0.864479
1891.19	-0.865471
1891.43	-0.870079
1891.68	1.94882
1891.94	-2.76412
1892.18	0.997211
1892.43	-5.59976
1892.68	-0.896141
1892.93	0.0370102
1893.18	-1.85628
1893.43	0.0104103
1893.68	0.928043
1893.93	-0.0328484
1894.18	-0.040657
1894.43	-0.978687
1894.68	6.52288
1894.93	4.63284
1895.18	-1.01052
1895.43	1.80516
1895.68	0.86462
1895.93	1.8042
1896.18	0.864994
1896.43	3.68551
1896.68	-1.95229
1896.93	0.870949
1897.18	1.81361
1897.42	-0.0665207
1897.68	-2.889
1897.92	-0.0694275
1898.17	-1.95483
1898.42	0.861061
1898.67	-2.90906
1898.92	0.842793
1899.17	5.53135
1899.42	3.63728
1899.67	-1.07262
1899.92	2.67822
1900.17	3.60884
1900.42	-0.157619
1900.67	-0.162918
1900.92	1.71281
1901.16	-0.16658
1901.41	3.59357
1901.66	1.71772
1901.91	2.66066
1902.16	1.72383
1902.41	1.72823
1902.66	3.61316
1902.91	2.6687
1903.16	3.60183
1903.41	-2.04946
1903.66	2.64424
1903.91	-3.94557
1904.16	-2.07145
1904.41	1.68344
1904.65	-2.08282
1904.9	1.67222
1905.15	1.66582
1905.4	-3.04046
1905.65	1.6549
1905.9	-0.231674
1906.15	4.45284
1906.4	-4.01999
1906.65	-2.15019
1906.9	3.47651
1907.14	-2.16652
1907.39	-1.23444
1907.64	-0.299644
1907.89	-0.302235
1908.14	-1.24159
1908.39	1.57831
1908.64	-2.1813
1908.89	1.57408
1909.14	-3.12505
1909.39	2.51409
1909.63	-2.18307
1909.88	-2.17956
1910.13	1.58758
1910.38	-5.93192
1910.63	2.54399
1910.88	3.49225
1911.13	0.671047
1911.38	-2.15374
1911.62	3.49633
1911.87	4.43503
1912.12	-0.280041
1912.37	-1.22923
1912.62	-0.294601
1912.87	2.52525
1913.12	1.57839
1913.37	1.57357
1913.61	-1.25574
1913.86	3.45459
1914.11	-0.308601
1914.36	-0.302658
1914.61	1.58607
1914.86	1.58863
1915.11	3.47806
1915.36	3.48058
1915.6	0.650307
1915.85	-2.18358
1916.1	3.47228
1916.35	1.57692
1916.6	6.28733
1916.85	3.44624
1917.1	1.54662
1917.34	-0.350975
1917.59	0.581676
1917.84	-1.31272
1918.09	-0.377258
1918.34	2.4467
1918.59	2.44674
1918.83	2.44983
1919.08	3.39803
1919.33	-3.20121
1919.58	0.579582
1919.83	3.4222
1920.08	1.54116
1920.33	2.48774
1920.57	1.53923
1920.82	1.52969
1921.07	0.581944
1921.32	0.585732
1921.57	-3.19177
1921.81	1.53548
1922.06	0.589554
1922.31	3.42467
1922.56	1.52781
1922.81	1.51954
1923.06	2.45409
1923.31	1.49785
1923.55	2.43424
1923.8	1.48052
1924.05	-0.418709
1924.3	-0.429062
1924.55	-0.440708
1924.79	0.494335
1925.04	-0.457283
1925.29	2.37294
1925.54	-1.40727
1925.79	2.37477
1926.04	0.489933
1926.28	-2.34271
1926.53	0.497997
1926.78	-4.22865
1927.03	-3.27799
1927.28	0.509827
1927.52	2.40339
1927.77	-2.33178
1928.02	0.508087
1928.27	-2.33501
1928.52	4.29423
1928.76	3.34406
1929.01	0.50095
1929.26	1.44762
1929.51	-0.447723
1929.76	2.39838
1930	6.19778
1930.25	2.40849
1930.5	6.20977
1930.75	3.36692
1931	5.27035
1931.24	0.520638
1931.49	0.515991
1931.74	-1.3912
1931.99	4.29435
1932.24	-1.41154
1932.48	-2.37102
1932.73	1.41429
1932.98	-2.39207
1933.23	1.39556
1933.47	3.2821
1933.72	-4.31038
1933.97	1.38636
1934.22	-0.500263
1934.46	2.36678
1934.71	3.3453
1934.96	3.3726
1935.21	-1.36639
1935.46	-3.25731
1935.7	-2.29385
1935.95	1.52663
1936.2	-1.363
1936.45	0.533958
1936.69	1.47894
1936.94	-0.437286
1937.19	0.502434
1937.44	-0.464577
1937.68	1.42699
1937.93	2.36556
1938.18	1.40098
1938.43	2.33937
1938.68	-1.47358
1938.92	-2.41964
1939.17	-1.46934
1939.42	-0.517624
1939.67	0.434891
1939.91	-1.47145
1940.16	-1.47166
1940.41	1.38239
1940.66	-0.520565
1940.9	-0.517811
1941.15	0.453358
1941.4	0.461349
1941.64	-2.40735
1941.89	-0.509087
1942.14	2.33418
1942.39	0.399155
1942.63	-0.547199
1942.88	-6.24489
1943.13	-3.37934
1943.38	0.435658
1943.62	-2.44815
1943.87	4.20963
1944.12	-2.48607
1944.37	-2.47092
1944.61	0.394085
1944.86	-1.51375
1945.11	3.26324
1945.35	-0.553886
1945.6	0.404419
1945.85	1.36316
1946.1	-1.50225
1946.34	5.19113
1946.59	-2.45857
1946.84	0.408455
1947.09	0.404839
1947.33	0.398285
1947.58	2.30209
1947.83	-2.48884
1948.07	1.32947
1948.32	3.23583
1948.57	2.27349
1948.82	2.26466
1949.06	1.30456
1949.31	0.349072
1949.56	-0.605995
1949.8	-4.43143
1950.05	-0.601223
1950.3	-0.597775
1950.54	3.242
1950.79	-0.57843
1951.04	-2.48869
1951.29	3.27167
1951.53	2.32272
1951.78	1.37188
1952.03	0.417496
1952.27	-1.50132
1952.52	-4.38268
1952.77	-0.541634
1953.01	0.411686
1953.26	1.37315
1953.51	-0.544796
1953.76	3.28199
1954	0.38092
1954.25	-1.56719
1954.49	2.24423
1954.74	-6.4085
1954.99	-4.51139
1955.24	3.1423
1955.48	-6.44426
1955.73	1.21812
1955.98	1.22248
1956.22	-0.684677
1956.47	-8.34102
1956.72	-0.661228
1956.96	-0.655453
1957.21	0.305233
1957.46	1.26854
1957.7	2.23141
1957.95	0.31139
1958.2	3.19392
1958.44	-0.651947
1958.69	1.26731
1958.94	1.26366
1959.18	-1.62832
1959.43	-2.60145
1959.68	-1.64949
1959.92	3.14777
1960.17	-4.54918
1960.42	1.20346
1960.66	1.19231
1960.91	-1.70014
1961.16	2.12806
1961.4	-0.763844
1961.65	2.10448
1961.9	-2.70309
1962.14	-0.788109
1962.39	3.04737
1962.63	-1.75544
1962.88	1.12007
1963.13	1.11622
1963.37	2.07218
1963.62	2.06814
1963.87	3.02409
1964.11	3.98069
1964.36	4.94042
1964.61	4.93955
1964.85	-1.78835
1965.1	2.04436
1965.35	1.07956
1965.59	1.07285
1965.84	2.98869
1966.08	-2.77453
1966.33	-0.852451
1966.58	0.110867
1966.82	2.99645
1967.07	-1.80817
1967.32	2.99702
1967.56	6.83536
1967.81	-1.82035
1968.05	1.06132
1968.3	3.94156
1968.55	2.0154
1968.79	1.04806
1969.04	3.92331
1969.29	2.94996
1969.53	5.81783
1969.78	0.0359192
1970.02	3.8604
1970.27	1.92487
1970.52	4.79136
1970.76	-1.93748
1971.01	2.84916
1971.25	1.8788
1971.5	-0.0492325
1971.75	2.81981
1971.99	0.893448
1972.24	4.72794
1972.48	2.80828
1972.73	0.88662
1972.98	2.7999
1973.22	0.873005
1973.47	5.65743
1973.71	4.68431
1973.96	2.7544
1974.21	0.82708
1974.45	7.52868
1974.7	2.72963
1974.94	2.72494
1975.19	6.55566
1975.44	5.59574
1975.68	1.76132
1975.93	6.55682
1976.17	0.803558
1976.42	5.59829
1976.66	1.75945
1976.91	3.67457
1977.16	8.46629
1977.4	4.62334
1977.65	2.69757
1977.89	3.64751
1978.14	4.59555
1978.39	0.749149
1978.63	5.53262
1978.88	3.60638
1979.12	6.47466
1979.37	3.59455
1979.61	4.54973
1979.86	2.62835
1980.1	8.37674
1980.35	7.41437
1980.6	4.53017
1980.84	6.43504
1981.09	7.38151
1981.33	6.41518
1981.58	7.36262
1981.82	6.39552
1982.07	7.34598
1982.31	8.29777
1982.56	12.1225
1982.81	7.32267
1983.05	11.1407
1983.3	8.25362
1983.54	2.49469
1983.79	12.049
1984.03	12.04
1984.28	0.553581
1984.52	10.1104
1984.77	12.9704
1985.02	9.13686
1985.26	13.9057
1985.51	7.19725
1985.75	11.0107
1986	7.1837
1986.24	13.8732
1986.49	7.18419
1986.73	14.8366
1986.98	12.9244
1987.22	7.18137
1987.47	8.13684
1987.71	3.34471
1987.96	10.9757
1988.21	6.17839
1988.45	8.06874
1988.7	13.7736
1988.94	7.093
1989.19	7.12879
1989.43	14.6243
1989.68	16.3552
1989.92	7.11272
1990.17	8.04294
1990.41	8.16913
1990.66	19.8636
1990.9	11.5536
1991.15	14.4309
1991.39	10.0787
1991.64	15.1062
1991.88	13.067
1992.13	10.9622
1992.37	14.3172
1992.62	11.6488
1992.86	11.5486
1993.11	14.372
1993.35	10.1361
1993.6	13.1746
1993.84	13.8819
1994.09	9.54841
1994.33	15.1347
1994.58	17.772
1994.82	12.0038
1995.07	18.6602
1995.31	14.0973
1995.56	10.7915
1995.8	14.4956
1996.05	16.2946
1996.29	9.2118
1996.54	15.3847
1996.78	14.346
1997.03	13.8515
1997.27	18.5883
1997.52	13.6601
1997.76	15.3002
1998.01	13.5173
1998.25	12.5331
1998.5	17.3862
1998.74	15.2758
1998.99	10.4748
1999.23	13.4612
1999.48	15.0522
1999.72	17.1277
1999.97	16.28
2000.21	13.7985
2000.46	14.9898
2000.7	14.1223
2000.95	16.7084
2001.19	17.0929
2001.43	12.7624
2001.68	14.7733
2001.92	18.8472
2002.17	17.1878
2002.41	18.2849
2002.66	16.3122
2002.9	14.115
2003.15	17.6525
2003.39	18.8112
2003.64	15.4747
2003.88	15.5103
2004.13	15.6905
2004.37	17.3287
2004.61	15.246
2004.86	14.1045
2005.1	15.4389
2005.35	13.8731
2005.59	12.0961
2005.84	13.0095
2006.08	18.6351
2006.33	14.7993
2006.57	16.6423
2006.81	18.2449
2007.06	15.847
2007.3	14.7959
2007.55	16.6761
2007.79	17.9546
2008.04	15.568
2008.28	14.8086
2008.53	16.4152
2008.77	19.4743
2009.01	17.7073
2009.26	18.1033
2009.5	13.0153
2009.75	14.5631
2009.99	16.3155
2010.24	22.3064
2010.48	16.3566
2010.73	18.9385
2010.97	16.5232
2011.21	15.6474
2011.46	14.9682
2011.7	19.8515
2011.95	16.4943
2012.19	18.0584
2012.43	11.7142
2012.68	15.4758
2012.92	17.3542
2013.17	21.1077
2013.42	19.205
2013.67	17.2957
2013.91	14.4588
2014.16	13.4997
2014.41	17.2354
2014.66	17.2067
2014.9	14.3657
2015.15	15.2969
2015.4	19.0525
2015.64	18.1207
2015.89	17.1907
2016.14	14.3797
2016.39	13.435
2016.63	18.1422
2016.88	19.1212
2017.13	17.249
2017.37	16.3055
2017.62	18.1766
2017.87	12.5268
2018.11	13.4509
2018.36	16.2481
2018.61	19.0416
2018.86	11.5167
2019.1	13.3747
2019.35	15.2297
2019.6	11.463
2019.84	11.4537
2020.09	15.1937
2020.34	12.3799
2020.58	11.4422
2020.83	13.313
2021.08	13.3111
2021.33	9.56752
2021.57	5.82381
2021.82	14.254
2022.07	8.63209
2022.31	7.69161
2022.56	15.1768
2022.81	11.4225
2023.05	14.2192
2023.3	14.2054
2023.55	8.5819
2023.8	11.3784
2024.04	11.3684
2024.29	9.48877
2024.54	4.80682
2024.78	11.3349
2025.03	7.58278
2025.27	10.3702
2025.52	13.1566
2025.77	9.40994
2026.02	9.39825
2026.26	8.45045
2026.51	10.3208
2026.76	5.67329
2027	7.56742
2027.25	10.4042
2027.5	11.3797
2027.74	10.4698
2027.99	10.4644
2028.23	11.3711
2028.48	9.46039
2028.73	8.40707
2028.98	9.4591
2029.22	4.93743
2029.47	10.4713
2029.72	18.0074
2029.96	8.56614
2030.21	9.45287
2030.45	9.40276
2030.7	11.2669
2030.95	8.43391
2031.19	9.39972
2031.44	7.56125
2031.69	8.489
2031.93	8.49059
2032.18	12.2255
2032.43	11.3074
2032.67	5.7222
2032.92	5.73873
2033.17	7.62249
2033.41	8.56968
2033.66	7.64549
2033.91	8.59485
2034.15	5.7971
2034.4	7.64661
2034.64	9.48722
2034.89	10.376
2035.14	11.2986
2035.38	7.58717
2035.63	10.4045
2035.87	7.62993
2036.12	7.6631
2036.37	11.4284
2036.61	12.3635
2036.86	10.4708
2037.11	11.4089
2037.35	9.55207
2037.6	6.74846
2037.84	9.55338
2038.09	7.68116
2038.34	5.80825
2038.58	7.67377
2038.83	7.6691
2039.08	8.59868
2039.32	7.65956
2039.57	6.72023
2039.81	5.78134
2040.06	7.64178
2040.31	5.76498
2040.55	5.75592
2040.8	2.9488
2041.04	7.60539
2041.29	4.80132
2041.54	6.66139
2041.78	7.5927
2042.03	2.93146
2042.27	2.92873
2042.52	0.130756
2042.77	3.85295
2043.01	8.51094
2043.26	5.71826
2043.5	5.72458
2043.75	4.80637
2044	9.48732
2044.24	7.64315
2044.49	3.92068
2044.73	1.12282
2044.98	7.6458
2045.23	8.56148
2045.47	5.73088
2045.72	1.12125
2045.96	6.73283
2046.21	5.8616
2046.45	10.6109
2046.7	7.76971
2046.95	1.19261
2047.19	1.16881
2047.44	1.17344
2047.68	4.89834
2047.93	1.1398
2048.17	-0.729095
2048.42	6.73343
2048.67	1.14513
2048.91	4.88023
2049.16	3.9553
2049.4	2.10351
2049.65	1.18199
2049.89	5.86175
2050.14	3.07975
2050.39	6.82881
2050.63	0.305969
2050.88	8.72302
2051.12	3.12336
2051.37	0.321934
2051.61	0.318344
2051.86	5.91396
2052.11	-2.48628
2052.35	3.12061
2052.6	4.99809
2052.84	4.0697
2053.09	3.14419
2053.33	3.15425
2053.58	3.1658
2053.82	3.17961
2054.07	0.396496
2054.31	5.08363
2054.56	-1.45492
2054.8	4.16297
2055.05	2.29527
2055.3	0.426598
2055.54	3.23418
2055.79	2.29402
2056.03	1.35892
2056.28	1.36134
2056.52	5.10157
2056.77	3.2319
2057.01	5.10312
2057.26	4.17245
2057.5	4.1787
2057.75	4.18616
2058	6.0654
2058.24	7.01124
2058.49	2.34592
2058.73	1.42418
2058.98	-0.434391
2059.22	3.32105
2059.47	2.39554
2059.71	4.27475
2059.96	2.4092
2060.2	4.2871
2060.45	1.47853
2060.69	2.41367
2060.94	0.542633
2061.18	3.35959
2061.43	-2.2467
2061.67	0.570084
2061.92	2.44904
2062.16	0.582153
2062.41	4.33364
2062.65	-3.14973
2062.9	2.4776
2063.14	-1.2586
2063.39	-1.24747
2063.63	1.57414
2063.88	0.647018
2064.12	4.40497
2064.37	2.53886
2064.61	6.29662
2064.86	1.61917
2065.1	-0.245506
2065.35	-0.232124
2065.59	0.721851
2065.84	0.737099
2066.08	0.751106
2066.33	-1.1142
2066.57	3.59085
2066.82	1.71984
2067.06	3.60751
2067.31	0.799595
2067.55	1.74753
2067.8	-1.06049
2068.04	-1.04939
2068.29	-1.0391
2068.53	2.72961
2068.78	-2.90217
2069.02	0.868637
2069.27	-2.88568
2069.51	3.69513
2069.76	5.56918
2070	0.860806
2070.25	0.860508
2070.49	0.869644
2070.73	2.76966
2070.98	0.914375
2071.22	2.82001
2071.47	2.82314
2071.71	3.7581
2071.96	0.0429344
2072.2	1.94662
2072.45	0.0666084
2072.69	0.0700188
2072.94	1.01654
2073.18	-1.80505
2073.43	1.96701
2073.67	4.79554
2073.92	3.86195
2074.16	-1.77993
2074.4	1.05301
2074.65	2.00499
2074.89	3.90197
2075.14	2.03419
2075.38	1.11077
2075.63	3.01892
2075.87	0.214951
2076.12	-1.65364
2076.36	2.13476
2076.6	-0.689953
2076.85	0.262054
2077.09	-5.39902
2077.34	-1.62359
2077.58	2.14949
2077.83	0.252789
2078.07	0.25531
2078.31	0.266075
2078.56	4.99688
2078.8	2.17678
2079.05	3.13021
2079.29	-4.40684
2079.54	4.10192
2079.78	4.12689
2080.03	0.363331
2080.27	-0.568501
2080.51	-0.556271
2080.76	-1.49003
2081	-3.37278
2081.25	0.410507
2081.49	0.414867
2081.74	1.36552
2081.98	0.427185
2082.22	-1.45674
2082.47	2.3322
2082.71	3.28692
2082.96	-3.31889
2083.2	1.41385
2083.45	-0.469742
2083.69	-1.4091
2083.93	0.486488
2084.18	2.38355
2084.42	0.501251
2084.67	1.45292
2084.91	-1.37427
2085.15	1.46899
2085.4	2.4215
2085.64	0.538567
2085.89	1.49097
2086.13	-0.389385
2086.37	0.571995
2086.62	-0.355133
2086.86	2.49773
2087.11	1.56279
2087.35	-5.04811
2087.59	2.53424
2087.84	-1.24021
2088.08	0.660206
2088.32	1.61462
2088.57	-5.00187
2088.81	4.4716
2089.06	-3.09101
2089.3	0.704296
2089.54	-2.12286
2089.79	0.730873
2090.03	0.747795
2090.28	0.758698
2090.52	-3.02109
2090.76	-0.169083
2091.01	0.789204
2091.25	-1.09435
2091.5	2.7078
2091.74	0.823856
2091.98	-0.107391
2092.23	-1.98632
2092.47	1.82637
2092.72	3.7438
2092.96	-0.981644
2093.2	-1.91443
2093.45	-1.89851
2093.69	2.86793
2093.93	3.8352
2094.18	1.95005
2094.42	-0.887306
2094.66	1.97484
2094.91	0.0812111
2095.15	2.93965
2095.39	-2.75892
2095.64	-2.75621
2095.88	-2.75397
2096.13	-0.850067
2096.37	-2.746
2096.61	2.95971
2096.86	1.06647
2097.1	-0.826744
2097.34	3.92588
2097.59	5.82566
2097.83	-0.820137
2098.07	0.134583
2098.32	-3.65631
2098.56	2.99516
2098.8	4.89624
2099.05	-1.73936
2099.29	0.166245
2099.53	-3.62376
2099.78	3.02621
2100.02	-1.71118
2100.27	-2.65157
2100.51	0.204834
2100.75	3.06232
2101	-0.72242
2101.24	-3.55423
2101.48	4.0571
2101.73	-0.678513
2101.97	0.281788
2102.21	-0.659622
2102.45	-4.45124
2102.7	3.15585
2102.94	-0.636929
2103.18	-0.633846
2103.43	-0.632168
2103.67	2.22052
2103.92	-0.619835
2104.16	2.23447
2104.4	0.345169
2104.64	-7.23808
2104.89	-1.52853
2105.13	-2.46477
2105.37	-0.552254
2105.62	-7.18745
2105.86	-1.47188
2106.1	-1.45708
2106.35	0.456059
2106.59	-1.43297
2106.83	-2.37325
2107.08	2.39012
2107.32	2.40215
2107.56	-5.19431
2107.8	1.46608
2108.05	0.517525
2108.29	-1.3831
2108.53	2.41673
2108.78	2.41569
2109.02	0.517723
2109.26	0.523678
2109.51	-1.36511
2109.75	-0.398304
2109.99	-7.03245
2110.23	1.5264
2110.48	-4.16455
2110.72	-5.10578
2110.96	0.602882
2111.21	-0.338184
2111.45	-1.27964
2111.69	-3.17282
2111.93	0.631035
2112.18	1.5861
2112.42	-2.20566
2112.66	-1.24728
2112.91	-2.18493
2113.15	-1.22292
2113.39	1.63971
2113.63	-0.243065
2113.88	-0.227283
2114.12	-0.215088
2114.36	-0.208084
2114.61	-0.202061
2114.85	-2.09445
2115.09	-0.183235
2115.33	-2.07426
2115.58	-2.06696
2115.82	-1.11037
2116.06	-3.00428
2116.31	-1.09755
2116.55	-0.145081
2116.79	-1.09218
2117.03	2.71256
2117.28	-0.12915
2117.52	-1.07106
2117.76	-5.80882
2118	-5.80255
2118.25	-1.05085
2118.49	-0.0978813
2118.73	4.64735
2118.97	-1.04693
2119.22	-0.0966873
2119.46	0.853699
2119.7	2.7518
2119.94	2.75352
2120.19	-0.0870895
2120.43	1.81234
2120.67	-0.0754089
2120.91	-0.0652847
2121.16	-1.94608
2121.4	1.85727
2121.64	-2.86585
2121.88	2.84038
2122.13	-0.936371
2122.37	0.0282097
2122.61	-2.80308
2122.85	-1.84022
2123.1	0.0715027
2123.34	1.03384
2123.58	-3.70087
2123.82	-0.842323
2124.07	-4.63293
2124.31	2.0176
2124.55	4.86801
2124.79	-0.825478
2125.03	-0.829014
2125.28	0.112801
2125.52	-0.840183
2125.76	3.89413
2126	-2.73645
2126.25	0.103909
2126.49	1.99728
2126.73	0.106724
2126.97	2.94702
2127.21	0.111107
2127.46	0.113461
2127.7	-1.77125
2127.94	3.90918
2128.18	-6.48337
2128.43	0.140289
2128.67	2.03797
2128.91	-2.67895
2129.15	0.16629
2129.39	0.174175
2129.64	-0.764378
2129.88	-2.64749
2130.12	-3.58463
2130.36	-0.741753
2130.6	-1.67938
2130.85	2.10702
2131.09	0.223286
2131.33	-3.55021
2131.57	-1.65615
2131.81	2.12581
2132.06	4.01863
2132.3	3.08015
2132.54	-0.690922
2132.78	-3.51957
2133.02	4.03393
2133.27	3.096
2133.51	0.273979
2133.75	3.11555
2133.99	-4.42324
2134.23	0.304745
2134.48	-0.628246
2134.72	4.10089
2134.96	-0.609543
2135.2	0.342506
2135.44	-1.53662
2135.68	2.24569
2135.93	1.3079
2136.17	0.367912
2136.41	-0.576038
2136.65	0.366428
2136.89	-0.571854
2137.14	1.32425
2137.38	-1.49344
2137.62	-2.42638
2137.86	0.414833
2138.1	2.31742
2138.34	1.38091
2138.59	-0.505062
2138.83	-0.502613
2139.07	-0.487514
2139.31	-3.29717
2139.55	-3.28115
2139.79	2.37037
2140.03	1.42387
2140.28	-3.28421
2140.52	-1.39516
2140.76	-1.38992
2141	-0.442211
2141.24	4.27367
2141.49	4.27995
2141.73	-1.36109
2141.97	-3.24139
2142.21	-2.29736
2142.45	-2.29082
2142.69	0.542225
2142.93	0.557816
2143.18	-1.31117
2143.42	-0.334286
2143.66	2.48832
2143.9	3.34997
2144.14	2.41922
2144.38	1.49502
2144.62	-0.364334
2144.87	-1.28477
2145.11	-4.09161
2145.35	2.4824
2145.59	-0.326294
2145.83	2.50504
2146.07	-2.18896
2146.31	0.638073
2146.55	0.644272
2146.8	3.47066
2147.04	-3.1026
2147.28	1.60263
2147.52	4.42602
2147.76	-0.267773
2148	1.6162
2148.24	5.37913
2148.48	-0.251759
2148.73	0.692646
2148.97	-2.11968
2149.21	-1.17649
2149.45	2.58086
2149.69	1.64314
2149.93	1.63796
2150.17	0.701309
2150.42	-0.236286
2150.66	-3.04602
2150.9	-3.97735
2151.14	2.59193
2151.38	2.6038
2151.62	1.68101
2151.86	-1.11957
2152.1	2.64525
2152.34	0.780777
2152.58	1.73231
2152.83	6.42532
2153.07	0.80249
2153.31	-2.0073
2153.55	2.68342
2153.79	0.814667
2154.03	-0.116755
2154.27	-0.113358
2154.51	4.57175
2154.75	2.69501
2154.99	1.75297
2155.24	4.55549
2155.48	-1.99933
2155.72	0.804878
2155.96	-1.06564
2156.2	0.804165
2156.44	2.67524
2156.68	-2.92494
2156.92	0.819092
2157.16	3.62931
2157.4	0.835714
2157.64	-2.89015
2157.89	0.859909
2158.13	-4.73265
2158.37	0.888409
2158.61	-2.84047
2158.85	0.906748
2159.09	-0.0208035
2159.33	1.85414
2159.57	1.85846
2159.81	1.86149
2160.05	2.79738
2160.29	-0.938276
2160.53	-3.7385
2160.77	-0.935843
2161.01	1.86646
2161.25	1.87118
2161.5	0.944706
2161.74	0.950092
2161.98	-0.910547
2162.22	1.8955
2162.46	3.76958
2162.7	-5.55111
2162.94	-4.61033
2163.18	-1.80585
2163.42	0.996614
2163.66	-0.863848
2163.9	-0.858715
2164.14	1.94345
2164.38	-0.849167
2164.62	-0.847498
2164.86	3.81189
2165.11	1.95101
2165.35	1.02881
2165.59	1.97212
2165.83	-6.40587
2166.07	2.92129
2166.31	-0.797688
2166.55	-0.793156
2166.79	-1.72
2167.03	0.14669
2167.27	-5.43952
2167.51	-0.779329
2167.75	1.0836
2167.99	5.73543
2168.23	-1.71657
2168.47	1.06771
2168.71	-4.50743
2168.95	-1.71111
2169.19	-0.77169
2169.43	-0.759657
2169.67	-0.745483
2169.91	2.06201
2170.15	-3.50233
2170.39	3.03338
2170.63	-0.675859
2170.87	2.12864
2171.11	-1.59077
2171.35	1.2044
2171.59	3.07121
2171.83	0.27338
2172.07	-1.60082
2172.31	-0.674461
2172.56	-1.60191
2172.79	2.11765
2173.04	2.12086
2173.28	3.0567
2173.51	-1.58158
2173.76	-2.50337
2174	-2.49367
2174.24	0.305477
2174.48	1.24538
2174.72	1.25446
2174.96	-1.52573
2175.2	0.340399
2175.44	0.347418
2175.68	-4.2938
2175.92	0.358349
2176.16	-2.42295
2176.4	1.29979
2176.64	1.30455
2176.88	1.30693
2177.12	-0.545555
2177.36	3.17764
2177.6	2.25699
2177.84	2.26495
2178.08	-2.3731
2178.32	2.28023
2178.55	0.426558
2178.8	0.425415
2179.03	4.14021
2179.28	-2.35247
2179.52	0.441471
2179.75	0.449177
2180	-3.25728
2180.23	1.39233
2180.47	-0.45775
2180.71	-0.451452
2180.95	3.2674
2181.19	5.12904
2181.43	-0.43486
2181.67	-2.28626
2181.91	-2.28263
2182.15	3.28957
2182.39	3.29476
2182.63	0.513615
2182.87	-1.338
2183.11	0.521635
2183.35	0.522459
2183.59	-2.25969
2183.83	1.44711
2184.07	-3.18719
2184.31	4.22903
2184.55	0.524466
2184.79	3.30947
2185.03	4.244
2185.27	2.40094
2185.51	0.556747
2185.75	-1.2877
2185.99	2.43048
2186.23	1.51569
2186.47	1.52825
2186.7	-0.314234
2186.95	-1.22654
2187.18	-1.21102
2187.42	1.58916
2187.66	-3.03752
2187.9	0.690079
2188.14	-0.230419
2188.38	-1.15585
2188.62	-1.15439
2188.86	0.703098
2189.1	0.702795
2189.34	-3.93805
2189.58	0.699551
2189.82	0.695629
2190.06	6.25612
2190.3	0.695562
2190.54	1.62763
2190.78	-4.85429
2191.01	-2.06453
2191.25	2.57995
2191.49	-0.195206
2191.73	-0.187162
2191.97	3.53083
2192.21	-1.09678
2192.45	2.62198
2192.69	-0.151773
2192.93	0.784813
2193.17	-6.62621
2193.41	0.807814
2193.65	3.60352
2193.89	-1.95274
2194.13	0.851816
2194.36	1.80228
2194.6	2.74842
2194.84	-1.88803
2195.08	-1.88362
2195.32	1.83706
2195.56	-0.948578
2195.8	1.84061
2196.04	1.83953
2196.28	3.69389
2196.52	1.83082
2196.76	-0.0301418
2197	2.75211
2197.23	2.75153
2197.47	3.67937
2197.71	3.68004
2197.95	-0.024086
2198.19	-0.945034
2198.43	2.77448
2198.67	-3.70703
2198.91	0.0178585
2199.15	0.961002
2199.38	2.83494
2199.62	0.0632515
2199.86	1.00829
2200.1	2.88353
2200.34	4.76533
2200.58	0.13673
2200.82	-0.774557
2201.06	0.174433
2201.3	-0.74275
2201.54	0.201994
2201.77	2.05784
2202.01	3.89124
2202.25	3.82392
2202.49	1.9257
2202.73	-0.832014
2202.97	0.153997
2203.21	0.183243
2203.45	1.10986
2203.68	5.75748
2203.92	0.210541
2204.16	3.11506
2204.4	3.07911
2204.64	0.284424
2204.88	3.09248
2205.12	3.07479
2205.36	-0.674288
2205.59	1.16804
2205.83	3.94507
2206.07	2.08553
2206.31	5.81017
2206.55	4.89355
2206.79	3.03977
2207.03	3.96199
2207.26	1.17996
2207.5	7.69846
2207.74	1.20033
2207.98	3.07218
2208.22	4.01466
2208.46	2.1656
2208.7	3.10786
2208.93	2.18771
2209.17	6.85288
2209.41	3.13657
2209.65	2.21209
2209.89	0.354393
2210.13	0.358189
2210.36	2.22664
2210.6	5.02984
2210.84	-1.48162
2211.08	6.9134
2211.32	1.33262
2211.56	2.27407
2211.8	0.419664
2212.03	3.22812
2212.27	-1.42334
2212.51	5.11494
2212.75	3.25638
2212.99	2.32579
2213.23	2.32694
2213.46	3.26086
2213.7	0.462521
2213.94	2.32612
2214.18	-1.39719
2214.42	2.34306
2214.66	-4.1699
2214.89	1.44435
2215.13	-3.21511
2215.37	-2.27502
2215.61	1.46535
2215.85	2.40466
2216.08	3.34335
2216.32	2.41404
2216.56	3.35142
2216.8	0.553743
2217.04	-0.377134
2217.28	-2.24136
2217.51	0.563364
2217.75	-1.29863
2217.99	3.37503
2218.23	1.51164
2218.47	2.44892
2218.7	4.32172
2218.94	-1.27365
2219.18	-0.331753
2219.42	0.611557
2219.66	-2.18169
2219.9	1.56288
2220.13	4.37428
2220.37	-0.291494
2220.61	2.51543
2220.85	0.648678
2221.09	-0.283161
2221.32	2.52092
2221.56	1.58271
2221.8	-2.15794
2222.04	-0.29282
2222.27	3.43963
2222.51	2.5056
2222.75	-3.09244
2222.99	0.647278
2223.23	-3.0794
2223.46	1.59728
2223.7	-0.261732
2223.94	0.68313
2224.18	1.63017
2224.42	-3.03052
2224.65	-1.14916
2224.89	-3.00915
2225.13	0.742302
2225.37	-1.11906
2225.6	-0.172522
2225.84	-2.03306
2226.08	1.72242
2226.32	-2.95087
2226.56	-1.06791
2226.79	-1.06008
2227.03	-1.98782
2227.27	-0.104239
2227.51	-1.97134
2227.74	-2.90241
2227.98	-1.02179
2228.22	2.73177
2228.46	-0.0805321
2228.69	0.858133
2228.93	3.67191
2229.17	-0.0767403
2229.41	-0.0751839
2229.64	1.80285
2229.88	-1.93925
2230.12	2.76065
2230.36	2.77169
2230.6	-0.0342598
2230.83	1.85152
2231.07	-1.89371
2231.31	2.80975
2231.55	0.00302505
2231.78	-3.74415
2232.02	2.84072
2232.26	0.0310154
2232.5	0.979807
2232.73	-1.83157
2232.97	0.0570812
2233.21	0.06567
2233.45	0.0739613
2233.68	1.96402
2233.92	-0.850229
2234.16	-1.78446
2234.39	-1.7785
2234.63	-0.835991
2234.87	0.105635
2235.11	-0.836245
2235.34	1.04314
2235.58	5.73779
2235.82	0.0894642
2236.06	1.0332
2236.29	-1.78401
2236.53	-1.77979
2236.77	-1.77555
2237	-0.831198
2237.24	-1.76762
2237.48	-1.75838
2237.72	1.07335
2237.95	-0.795095
2238.19	-0.780407
2238.43	2.05984
2238.67	1.12876
2238.9	-0.746006
2239.14	1.15135
2239.38	3.05187
2239.61	0.226324
2239.85	1.16958
2240.09	3.05436
2240.33	-4.49619
2240.56	2.09944
2240.8	3.04082
2241.04	2.11417
2241.27	-0.701605
2241.51	-1.64083
2241.75	-0.693043
2241.99	-0.688398
2242.22	4.03436
2242.46	-2.56693
2242.7	-3.50554
2242.93	-0.667839
2243.17	5.94352
2243.41	2.16833
2243.64	0.27857
2243.88	-0.667444
2244.12	-1.61113
2244.36	-3.49708
2244.59	-3.494
2244.83	-2.54395
2245.07	1.24289
2245.3	1.25772
2245.54	-3.45332
2245.78	0.335514
2246.01	1.28893
2246.25	3.18876
2246.49	1.30612
2246.72	-2.47008
2246.96	-1.51925
2247.2	2.27177
2247.43	1.33241
2247.67	2.28414
2247.91	-0.551716
2248.14	0.396418
2248.38	-0.549498
2248.62	0.397139
2248.85	3.23622
2249.09	-1.49485
2249.33	-2.44064
2249.56	-1.49358
2249.8	-2.43305
2250.04	1.35818
2250.27	1.35983
2250.51	3.25063
2250.75	2.30006
2250.98	-0.542526
2251.22	-1.4933
2251.46	-1.49652
2251.69	0.392294
2251.93	-0.552868
2252.17	2.28654
2252.4	0.400787
2252.64	-0.538372
2252.88	-0.530607
2253.11	1.37301
2253.35	-3.34216
2253.59	1.40536
2253.82	-0.478382
2254.06	-1.41729
2254.3	2.38108
2254.53	1.44111
2254.77	-3.29367
2255.01	2.39774
2255.24	-2.34406
2255.48	-3.28911
2255.72	3.35001
2255.95	-0.439791
2256.19	0.511478
2256.42	0.5184
2256.66	0.525871
2256.9	2.43042
2257.13	0.539499
2257.37	-4.19926
2257.61	4.35009
2257.84	0.559406
2258.08	3.41307
2258.32	-0.38171
2258.55	-1.32839
2258.79	-1.32481
2259.02	-2.27025
2259.26	-0.364746
2259.5	1.54157
2259.73	-4.15501
2259.97	1.55057
2260.2	-3.19624
2260.44	0.610302
2260.68	-0.335695
2260.91	5.37309
2261.15	-1.27596
2261.39	-3.16771
2261.62	-1.25769
2261.86	1.59962
2262.1	6.36077
2262.33	2.55902
2262.57	2.56343
2262.8	-0.285906
2263.04	-1.23014
2263.28	0.682329
2263.51	1.64447
2263.75	-4.06128
2263.98	-0.238111
2264.22	-1.17848
2264.46	-4.02793
2264.69	-0.200438
2264.93	-0.190329
2265.16	-1.13645
2265.4	-1.12901
2265.64	-1.12238
2265.87	1.74578
2266.11	1.74867
2266.34	1.74778
2266.58	-0.167509
2266.81	-1.12763
2267.05	-3.04219
2267.29	-0.183493
2267.52	-0.1868
2267.76	-4.00578
2267.99	-1.14661
2268.23	-2.10506
2268.47	0.75242
2268.7	-2.10834
2268.94	2.66169
2269.17	-1.14697
2269.41	-1.13938
2269.65	0.777916
2269.88	0.788095
2270.12	-3.97484
2270.35	-1.09932
2270.59	-2.99956
2270.82	2.74037
2271.06	-0.121052
2271.3	-1.06901
2271.53	-0.106333
2271.77	0.855148
2272	-2.00806
2272.24	-1.04483
2272.47	-1.04037
2272.71	-0.0815659
2272.95	2.79151
2273.18	1.83798
2273.42	1.84136
2273.65	-2.93997
2273.89	-1.98007
2274.12	-1.02003
2274.36	-1.01707
2274.6	-3.88563
2274.83	-1.01124
2275.07	3.7781
2275.3	-1.00462
2275.54	2.82802
2275.77	-0.998148
2276.01	-1.95499
2276.24	-2.90698
2276.48	-2.89915
2276.72	-0.0168457
2276.95	0.949459
2277.18	-0.959848
2277.42	-5.74548
2277.66	-0.941023
2277.89	-2.8476
2278.13	1.96329
2278.36	-0.902378
2278.6	-3.77763
2278.83	-1.85333
2279.07	0.0694332
2279.3	-0.890583
2279.54	-0.890915
2279.78	-2.81497
2280.01	3.89303
2280.24	-0.912708
2280.48	0.999596
2280.72	0.0349903
2280.95	1.94847
2281.19	0.028017
2281.42	-1.89062
2281.66	-4.76815
2281.89	-2.85214
2282.13	-1.88916
2282.36	0.0315971
2282.6	-3.79767
2282.83	-1.87317
2283.07	0.0532322
2283.3	0.0615616
2283.54	-0.88818
2283.77	-0.875311
2284.01	-0.860449
2284.24	1.0751
2284.48	3.01392
2284.71	-0.822584
2284.95	-1.7795
2285.19	3.03874
2285.42	1.12307
2285.65	0.164623
2285.89	-1.75771
2286.12	1.12448
2286.36	-2.73284
2286.59	-4.65576
2286.83	-4.65236
2287.06	2.0876
2287.3	2.10393
2287.54	-1.7337
2287.77	-1.72798
2288	-0.760206
2288.24	-0.750765
2288.47	-0.751257
2288.71	-1.71723
2288.94	3.09567
2289.18	-2.68615
2289.41	5.97101
2289.65	3.07254
2289.88	-0.784826
2290.12	6.89734
2290.35	0.163832
2290.59	2.08511
2290.82	-0.797182
2291.06	3.0505
2291.29	-1.75068
2291.53	0.181791
2291.76	-3.65515
2292	1.16399
2292.23	-0.754089
2292.47	-1.7102
2292.7	1.1854
2292.94	-0.731943
2293.17	3.12943
2293.41	3.13681
2293.64	0.252329
2293.88	-0.706516
2294.11	1.2245
2294.34	-1.66753
2294.58	-0.705521
2294.81	0.255211
2295.05	1.21456
2295.28	-4.56749
2295.52	0.246162
2295.75	-3.60828
2295.99	-0.721752
2296.22	0.239187
2296.46	-2.65362
2296.69	0.223421
2296.93	-1.70073
2297.16	2.15181
2297.39	4.08254
2297.63	-2.64695
2297.86	1.21158
2298.1	-1.6671
2298.33	0.270647
2298.57	-2.61182
2298.8	-1.64268
2299.04	3.18394
2299.27	-3.55502
2299.51	-1.61907
2299.74	1.28113
2299.97	1.28582
2300.21	2.25166
2300.44	0.324196
2300.68	0.325109
2300.91	-2.56403
2301.15	0.33699
2301.38	-1.58765
2301.61	-2.54804
2301.85	0.351185
2302.08	0.353504
2302.32	4.21523
2302.55	-1.57716
2302.79	-3.50764
2303.02	3.25059
2303.25	-0.609001
2303.49	-3.50421
2303.72	1.32233
2303.96	-3.50091
2304.19	-3.49676
2304.43	2.30147
2304.66	-2.51949
2304.89	-1.54922
2305.13	-0.577806
2305.36	3.29322
2305.6	0.400276
2305.83	-3.46123
2306.07	3.30617
2306.3	1.37924
2306.53	0.418142
2306.77	-3.44513
2307	4.28956
2307.24	1.39102
2307.47	0.425077
2307.7	2.35684
2307.94	1.38811
2308.17	0.421106
2308.41	0.419926
2308.64	-0.547129
2308.87	0.42049
2309.11	1.38958
2309.34	-1.50321
2309.58	3.33552
2309.81	-0.521721
2310.04	0.455948
2310.28	3.36571
2310.51	3.37043
2310.75	-0.496748
2310.98	0.471298
2311.21	-3.39952
2311.45	1.43126
2311.68	-1.48438
2311.92	-1.50084
2312.15	-4.40588
2312.38	-1.5148
2312.62	1.37807
2312.85	-0.555941
2313.08	3.30127
2313.32	2.33733
2313.55	-1.51756
2313.79	-0.542431
2314.02	0.435816
2314.25	-0.520006
2314.49	-4.37527
2314.72	-2.43318
2314.95	1.44602
2315.19	-1.44411
2315.42	-4.34042
2315.66	2.42472
2315.89	3.38506
2316.12	0.479401
2316.36	3.3722
2316.59	1.42364
2316.82	1.4161
2317.06	2.37855
2317.29	-1.48325
2317.52	3.34754
2317.76	1.41919
2317.99	-0.503372
2318.23	-1.46324
2318.46	1.42585
2318.69	4.31881
2318.93	2.38438
2319.16	-0.515705
2319.39	0.445734
2319.63	1.40743
2319.86	-0.524899
2320.09	0.438894
2320.33	1.4049
2320.56	4.30157
2320.79	4.30227
2321.03	7.2016
2321.26	0.451563
2321.5	0.457386
2321.73	5.2916
2321.96	3.36842
2322.2	2.41246
2322.43	8.22138
2322.66	5.33208
2322.9	5.33635
2323.13	10.169
2323.36	16.9387
2323.6	10.1752
2323.83	8.24439
2324.06	11.1485
2324.3	14.0514
2324.53	12.1162
2324.76	15.0156
2325	20.8054
2325.23	18.8576
2325.46	24.6372
2325.7	28.4883
2325.93	36.2024
2326.16	44.8789
2326.4	53.5513
2326.63	74.7649
2326.86	93.0746
2327.09	137.421
2327.33	185.606
2327.56	287.764
2327.79	400.514
2328.03	433.215
2328.26	410.997
2328.49	305.961
2328.73	216.325
2328.96	140.185
2329.19	94.8573
2329.43	73.6359
2329.66	53.3799
2329.89	46.6298
2330.13	29.2899
2330.36	29.2975
2330.59	20.6243
2330.82	17.7305
2331.06	10.0214
2331.29	8.09357
2331.52	7.13257
2331.76	2.32128
2331.99	3.28932
2332.22	9.07834
2332.46	2.32354
2332.69	6.16924
2332.92	1.34808
2333.16	-0.582813
2333.39	3.26361
2333.62	4.22123
2333.85	-1.55886
2334.09	-0.600042
2334.32	1.31956
2334.55	2.27544
2334.79	1.30408
2335.02	4.18362
2335.25	5.14055
2335.48	2.25299
2335.72	3.21141
2335.95	0.326221
2336.18	-2.55842
2336.41	0.324228
2336.65	-0.642168
2336.88	-0.645729
2337.11	4.15878
2337.34	1.27125
2337.58	2.22926
2337.81	1.26459
2338.04	-2.58529
2338.28	1.25576
2338.51	0.291031
2338.74	-1.63497
2338.97	1.24535
2339.21	1.24414
2339.44	-3.56357
2339.67	4.12353
2339.91	-0.685984
2340.14	1.23128
2340.37	1.22481
2340.6	2.17774
2340.84	0.248146
2341.07	-1.68229
2341.3	2.14776
2341.53	0.214832
2341.77	0.200445
2342	2.10718
2342.23	3.05723
2342.46	2.08954
2342.7	0.163746
2342.93	4.95022
2343.16	4.94457
2343.39	2.0644
2343.63	3.97816
2343.86	1.09703
2344.09	2.05037
2344.32	-1.78744
2344.56	2.0448
2344.79	3.959
2345.02	-2.75669
2345.25	1.07146
2345.49	-0.853222
2345.72	-1.82075
2345.95	-0.874577
2346.18	5.82068
2346.41	1.0206
2346.65	-0.90192
2346.88	-5.69664
2347.11	-3.7879
2347.34	-0.922979
2347.58	0.984209
2347.81	-2.85148
2348.04	1.93065
2348.27	1.92693
2348.5	-3.82072
2348.74	0.00619316
2348.97	0.957731
2349.2	1.90635
2349.43	-2.89228
2349.67	-0.0388279
2349.9	-1.01453
2350.13	2.78921
2350.36	3.71884
2350.59	0.823151
2350.83	2.68411
2351.06	-0.245993
2351.29	4.55879
2351.52	-0.113529
2351.75	2.78177
2351.99	1.75263
2352.22	1.71007
2352.45	5.52296
2352.68	-1.16266
2352.91	0.719952
2353.15	0.684134
2353.38	-1.25044
2353.61	-3.15707
2353.84	3.5004
2354.07	-0.324406
2354.31	-2.23779
2354.54	-0.342932
2354.77	-1.29748
2355	-0.347094
2355.23	3.45415
2355.47	-3.22731
2355.7	-0.381107
2355.93	0.558893
2356.16	-1.35976
2356.39	3.38713
2356.63	0.509945
2356.86	3.34007
2357.09	0.463091
2357.32	-3.35817
2357.55	-5.27543
2357.79	2.31549
2358.02	-2.45355
2358.25	1.33312
2358.48	1.31822
2358.71	-2.49718
2358.94	-1.5649
2359.18	3.17031
2359.41	-1.59406
2359.64	-1.60808
2359.87	-1.62413
2360.1	3.10637
2360.33	4.03581
2360.57	0.217937
2360.8	1.14671
2361.03	-5.5154
2361.26	1.10509
2361.49	1.08362
2361.72	-0.834232
2361.96	0.0920048
2362.19	2.91262
2362.42	4.7834
2362.65	-2.81726
2362.88	0.00214577
2363.11	1.87422
2363.34	0.906647
2363.58	-3.84564
2363.81	-0.0794506
2364.04	-1.04497
2364.27	1.77359
2364.5	-2.97705
2364.73	-3.94347
2364.97	-4.90991
