#Acq. time (s)=	60
#Accumulations=	2
#Range (cm-¹)=	1200...2360
#Windows=	3
#Auto scanning=	Off
#Autofocus=	Off
#Macrospot=	Off
#AutoExposure=	Off
#Spike filter=	Multiple accum.
#Delay time (s)=	2
#Binning=	1
#Readout mode=	Signal
#DeNoise=	Off
#ICS correction=	On
#Dark correction=	Off
#Inst. Process=	Off
#Detector Gain=	Best Dynamic
#Detector ADC=	50 kHz HS
#Detector temperature (°C)=	-60.09
#Instrument=	LabRAM HR Evol
#Detector=	SIN-EM FIVIS
#Objective=	x100_VIS_LWD
#Grating=	1800 (450-850nm)
#ND Filter=	100%
#Laser=	532nm_Edge
#Hole=	30.0125
#Temperature=	0
#Range=	Visible
#StageXY=	75x50mm Scan+
#StageZ=	Z motor
#X (µm)=	0
#Y (µm)=	0
#Z (µm)=	-17.3
#Full time(mm:ss)=	6:23
#Project=	21_08_11
#Sample=	BU20
#Site=	
#Title=	BU20-J-FF1-FI02-V_1800 (450-850nm)_532nm_Edge_100%_x100_VIS_LWD_H30um_60sX2
#Remark=	
#Date=	11.08.2021 17:12
#Acquired=	11.08.2021 17:12:55
#Data Range:Extract=	16.12.2021 15:36:30
#Base:Fit=	16.12.2021 15:36:40
#Base:Fit=	16.12.2021 15:56:39
#Base:Sub=	16.12.2021 15:56:41
1201.69	-0.435024
1201.97	-1.4754
1202.25	-0.333134
1202.52	-1.35888
1202.8	1.87012
1203.08	-0.283337
1203.36	-1.35965
1203.63	0.802574
1203.91	-0.255268
1204.19	2.99976
1204.47	-2.35902
1204.75	-2.34819
1205.02	0.882534
1205.3	0.88858
1205.58	1.9663
1205.86	0.898392
1206.14	0.903545
1206.41	6.2668
1206.69	-0.15519
1206.97	5.21142
1207.25	-3.34117
1207.52	2.02717
1207.8	2.04224
1208.08	2.05373
1208.36	0.995502
1208.63	5.28553
1208.91	1.02449
1209.19	-4.30123
1209.47	4.2707
1209.74	-1.05887
1210.02	-2.1181
1210.3	-4.24571
1210.58	0.0364647
1210.86	-3.15628
1211.13	-1.01062
1211.41	-2.0682
1211.69	1.13921
1211.96	0.0845528
1212.24	-0.969234
1212.52	1.17284
1212.8	1.18663
1213.08	-0.926357
1213.35	3.34678
1213.63	-0.889904
1213.91	-0.867058
1214.19	-2.97428
1214.46	2.37041
1214.74	1.326
1215.02	-0.783413
1215.29	1.36505
1215.57	0.314068
1215.85	-1.80399
1216.13	-4.98691
1216.41	0.337353
1216.68	0.347832
1216.96	-1.76533
1217.24	-0.691719
1217.51	-0.678295
1217.79	3.58188
1218.07	3.59454
1218.35	-2.75631
1218.62	-0.614796
1218.9	-4.84087
1219.18	2.60382
1219.45	-2.68607
1219.73	-1.60584
1220.01	-3.70534
1220.29	-6.86761
1220.56	-0.485348
1220.84	-2.59122
1221.12	2.7256
1221.4	0.617092
1221.67	-2.55324
1221.95	0.630806
1222.23	-1.48219
1222.5	0.638794
1222.78	-0.412846
1223.06	-1.46389
1223.33	4.88622
1223.61	-0.388451
1223.89	-2.48838
1224.16	7.02868
1224.44	9.15432
1224.72	1.78429
1225	2.8637
1225.27	2.8893
1225.55	7.13818
1225.83	2.93472
1226.1	6.12025
1226.38	7.19016
1226.66	10.3701
1226.93	6.15133
1227.21	10.3537
1227.49	11.3979
1227.76	7.1818
1228.04	12.426
1228.32	10.308
1228.6	13.4719
1228.87	22.0091
1229.15	20.0432
1229.43	16.8765
1229.7	18.9563
1229.98	18.9526
1230.26	24.2437
1230.53	26.3479
1230.81	34.658
1231.08	32.5741
1231.36	37.8488
1231.64	37.8677
1231.91	38.9298
1232.19	41.0496
1232.47	44.2183
1232.74	41.0791
1233.02	40.0458
1233.3	46.3723
1233.57	46.3997
1233.85	49.5793
1234.13	44.3567
1234.4	39.1363
1234.68	42.3156
1234.96	39.1886
1235.23	42.3719
1235.51	37.1424
1235.79	34.0087
1236.06	35.0723
1236.34	29.8263
1236.62	21.427
1236.89	27.7328
1237.17	21.4299
1237.44	22.4805
1237.72	22.4809
1238	18.2843
1238.27	20.3864
1238.55	10.9596
1238.83	12.0218
1239.1	7.8435
1239.38	17.2946
1239.66	13.1199
1239.93	8.94662
1240.21	10.0157
1240.48	7.9411
1240.76	14.2528
1241.04	14.2702
1241.31	10.0891
1241.59	6.95939
1241.86	8.02665
1242.14	10.1454
1242.42	11.2176
1242.69	8.09997
1242.97	10.2165
1243.25	14.4287
1243.52	7.11314
1243.8	11.3266
1244.07	8.19861
1244.35	15.5521
1244.63	9.27487
1244.9	11.3792
1245.18	14.5273
1245.46	18.7184
1245.73	9.30721
1246.01	14.5574
1246.28	14.576
1246.56	15.6422
1246.83	18.7981
1247.11	18.8155
1247.39	24.0636
1247.66	16.7421
1247.94	21.9786
1248.21	23.0404
1248.49	25.1538
1248.77	24.1317
1249.04	27.2868
1249.32	22.0738
1249.59	20.0017
1249.87	27.333
1250.15	26.2915
1250.42	28.3879
1250.7	32.5751
1250.97	22.1347
1251.25	31.5464
1251.52	32.5987
1251.8	33.6503
1252.07	26.3489
1252.35	28.4439
1252.63	23.2331
1252.9	27.42
1253.18	29.5253
1253.45	20.1595
1253.73	24.3635
1254	17.086
1254.28	23.3755
1254.56	18.1745
1254.83	16.1082
1255.11	20.305
1255.38	17.1891
1255.66	18.2538
1255.93	16.1875
1256.21	13.0799
1256.48	14.1465
1256.76	18.342
1257.03	13.1321
1257.31	11.0583
1257.59	10.0298
1257.86	13.1775
1258.14	15.2807
1258.41	21.5497
1258.69	23.6525
1258.96	14.2843
1259.24	13.2612
1259.51	16.4387
1259.79	16.4446
1260.07	10.1898
1260.34	10.1927
1260.61	11.244
1260.89	9.16913
1261.17	17.5313
1261.44	10.2823
1261.72	17.666
1261.99	15.6557
1262.27	22.9047
1262.54	22.8597
1262.82	24.915
1263.09	38.5578
1263.37	49.0747
1263.64	54.3855
1263.92	73.3131
1264.19	76.3943
1264.47	61.7477
1264.74	56.5385
1265.02	38.7881
1265.29	25.2074
1265.57	24.1798
1265.84	20.0218
1266.12	10.6411
1266.39	7.53106
1266.67	7.55799
1266.94	7.58646
1267.22	9.70774
1267.49	6.59976
1267.77	7.68032
1268.04	5.61997
1268.32	6.69322
1268.59	1.47952
1268.87	3.59755
1269.14	8.85443
1269.42	6.76935
1269.69	3.63505
1269.97	7.83315
1270.24	0.515268
1270.52	8.89997
1270.79	5.77534
1271.07	6.83572
1271.34	4.76191
1271.62	7.92708
1271.89	9.00268
1272.17	5.89303
1272.44	5.92158
1272.72	2.80552
1272.99	5.9766
1273.27	4.9558
1273.54	3.93431
1273.82	2.90981
1274.09	9.22376
1274.36	11.3385
1274.64	7.16059
1274.92	7.18192
1275.19	9.3038
1275.46	7.22987
1275.74	6.20674
1276.01	11.4805
1276.29	8.35634
1276.56	5.22923
1276.84	3.15437
1277.11	8.43359
1277.39	5.3078
1277.66	7.43514
1277.93	11.6648
1278.21	9.59117
1278.48	11.7194
1278.76	8.58884
1279.03	9.65729
1279.31	11.7758
1279.58	11.7884
1279.86	16.0102
1280.13	16.0312
1280.41	20.2594
1280.68	20.2883
1280.95	30.8473
1281.23	35.0864
1281.5	46.6796
1281.78	57.2296
1282.05	74.1073
1282.33	100.43
1282.6	158.278
1282.87	228.554
1283.15	314.612
1283.42	519.574
1283.7	751.788
1283.97	1077.23
1284.25	1289.23
1284.52	1150.3
1284.79	758.967
1285.07	424.903
1285.34	236.446
1285.62	143.857
1285.89	89.124
1286.17	67.0023
1286.44	52.2784
1286.71	47.028
1286.99	37.5609
1287.26	27.041
1287.53	24.9462
1287.81	18.6482
1288.08	16.5619
1288.36	15.5292
1288.63	13.4474
1288.91	10.314
1289.18	6.12633
1289.45	10.3635
1289.73	8.28133
1290	7.24675
1290.27	7.25955
1290.55	5.16777
1290.82	9.39704
1291.1	2.0413
1291.37	2.05738
1291.65	5.23358
1291.92	7.3592
1292.19	4.216
1292.47	10.5483
1292.74	3.19432
1293.01	7.43315
1293.29	0.0886307
1293.56	5.38893
1293.84	5.41338
1294.11	9.64767
1294.38	6.49977
1294.66	5.46521
1294.93	5.4958
1295.2	3.41934
1295.48	3.45811
1295.75	-0.735992
1296.03	-1.77192
1296.3	3.53068
1296.57	5.65899
1296.85	2.49968
1297.12	2.51027
1297.39	3.57643
1297.67	6.75308
1297.94	0.43416
1298.21	2.56279
1298.49	1.51854
1298.76	1.53086
1299.04	2.59855
1299.31	1.55816
1299.58	-0.532446
1299.86	1.59942
1300.13	1.61718
1300.4	1.63286
1300.68	3.75977
1300.95	0.609867
1301.22	2.74259
1301.5	3.82027
1301.77	2.78379
1302.04	0.688835
1302.32	2.81786
1302.59	-3.50501
1302.86	3.90211
1303.14	2.85721
1303.41	0.759741
1303.68	3.94439
1303.96	0.79311
1304.23	-4.47041
1304.5	-2.34482
1304.78	6.11256
1305.05	0.844294
1305.32	-2.31149
1305.6	6.13819
1305.87	-1.23584
1306.14	-0.167885
1306.42	1.95703
1306.69	-0.133612
1306.96	-1.17103
1307.24	0.954472
1307.51	2.0248
1307.78	5.20752
1308.06	-2.16164
1308.33	3.12903
1308.6	-2.12447
1308.88	0.00536919
1309.15	-3.14003
1309.42	0.0451698
1309.69	-2.04984
1309.97	2.18539
1310.24	2.20118
1310.51	2.21839
1310.79	4.34691
1311.06	-4.07896
1311.33	-0.895168
1311.61	1.23685
1311.88	0.201687
1312.15	0.219868
1312.43	0.235924
1312.7	-0.808632
1312.97	-0.79438
1313.24	5.55338
1313.52	-2.8777
1313.79	-1.80673
1314.06	1.37717
1314.34	-0.715662
1314.61	-0.696619
1314.88	-1.73339
1315.15	2.50999
1315.43	-3.80756
1315.7	-1.67942
1315.97	-2.72145
1316.24	1.5175
1316.52	-3.74799
1316.79	2.60403
1317.06	1.56697
1317.33	1.58579
1317.61	2.65998
1317.88	-0.492308
1318.15	0.580494
1318.43	-0.460037
1318.7	-0.445036
1318.97	-1.48688
1319.24	4.86594
1319.52	2.77037
1319.79	-4.60854
1320.06	0.688141
1320.33	-1.41245
1320.61	-1.40223
1320.88	1.7736
1321.15	-1.38652
1321.43	-2.43107
1321.7	-1.36766
1321.97	2.86306
1322.24	2.87433
1322.52	0.776722
1322.79	1.83999
1323.06	-2.35922
1323.33	-0.233706
1323.61	-0.217487
1323.88	-0.20319
1324.15	0.867365
1324.42	1.93546
1324.69	-0.154648
1324.97	0.909285
1325.24	-0.141388
1325.51	3.01997
1325.78	0.90638
1326.06	-0.139572
1326.33	-2.2322
1326.6	-1.15919
1326.87	-2.17809
1327.15	-0.0472717
1327.42	1.03085
1327.69	1.05663
1327.96	-1.02615
1328.23	1.10758
1328.51	1.12799
1328.78	-2.02734
1329.05	2.21157
1329.32	1.17057
1329.6	-3.03611
1329.87	0.140604
1330.14	0.15099
1330.41	-3.00329
1330.68	-0.886837
1330.96	-1.93482
1331.23	-2.98422
1331.5	3.33933
1331.77	0.188271
1332.04	1.2476
1332.32	3.35708
1332.59	1.25813
1332.86	1.2639
1333.13	-1.88249
1333.4	-0.824055
1333.68	-1.86671
1333.95	-0.80827
1334.22	-2.89936
1334.49	0.258982
1334.76	2.36733
1335.04	2.37663
1335.31	-1.80952
1335.58	2.39633
1335.85	1.35805
1336.12	1.36903
1336.4	1.38038
1336.67	0.344154
1336.94	5.59741
1337.21	-0.679489
1337.48	-2.76577
1337.75	0.38545
1338.03	-2.74619
1338.3	1.45381
1338.57	-1.6766
1338.84	-0.615868
1339.11	2.54063
1339.38	-0.584604
1339.66	0.478022
1339.93	3.63504
1340.2	2.60349
1340.47	2.61778
1340.74	-1.55785
1341.01	-1.54493
1341.29	2.65526
1341.56	-0.475273
1341.83	-0.466013
1342.1	3.72766
1342.37	-0.450378
1342.64	2.69766
1342.92	1.66385
1343.19	-2.50631
1343.46	0.645298
1343.73	2.75172
1344	-0.371304
1344.27	1.73281
1344.54	-1.39393
1344.82	-3.47556
1345.09	3.84781
1345.36	4.8989
1345.63	-1.36345
1345.9	1.77146
1346.17	1.77566
1346.44	1.78173
1346.72	1.78745
1346.99	5.96467
1347.26	-1.32505
1347.53	1.81287
1347.8	1.82445
1348.07	2.87874
1348.34	2.88894
1348.61	4.98164
1348.89	1.86488
1349.16	1.87394
1349.43	0.841803
1349.7	1.89229
1349.97	7.10591
1350.24	-0.172277
1350.51	-1.20501
1350.79	-0.155134
1351.06	1.93272
1351.33	0.903852
1351.6	-0.122784
1351.87	-0.106478
1352.14	4.07299
1352.41	-0.0658875
1352.68	2.03272
1352.95	2.06696
1353.23	2.11007
1353.5	-1.0196
1353.77	-0.00123787
1354.04	3.09933
1354.31	4.15231
1354.58	6.24856
1354.85	2.09778
1355.12	3.14204
1355.39	1.08574
1355.66	4.22324
1355.94	3.19063
1356.21	4.24025
1356.48	8.4059
1356.75	1.1469
1357.02	3.23418
1357.29	0.128885
1357.56	1.17639
1357.83	0.14748
1358.1	0.156794
1358.37	0.165703
1358.64	0.174166
1358.92	2.25832
1359.19	6.41652
1359.46	-1.871
1359.73	3.31782
1360	1.25122
1360.27	3.33106
1360.54	3.34194
1360.81	4.39063
1361.08	4.40343
1361.35	0.272192
1361.62	5.46146
1361.89	-0.741802
1362.16	5.48202
1362.43	1.3524
1362.7	4.47334
1362.98	3.45566
1363.25	3.4733
1363.52	8.66936
1363.79	2.46841
1364.06	4.55169
1364.33	11.8123
1364.6	6.642
1364.87	9.75462
1365.14	12.8652
1365.41	11.835
1365.68	8.73633
1365.95	5.63871
1366.22	2.54132
1366.49	10.8156
1366.76	1.51975
1367.03	9.79802
1367.3	4.64638
1367.57	8.79716
1367.85	8.81246
1368.12	7.79402
1368.38	8.84295
1368.66	9.89272
1368.93	20.2483
1369.2	40.9361
1369.47	64.7185
1369.74	37.8463
1370.01	15.1097
1370.28	10.9835
1370.55	10.9906
1370.82	6.86321
1371.09	9.96368
1371.36	6.86728
1371.63	12.0269
1371.9	8.93299
1372.17	4.81248
1372.44	6.88178
1372.71	14.1055
1372.98	5.86889
1373.25	15.1531
1373.52	11.041
1373.79	3.83917
1374.06	12.0924
1374.33	14.163
1374.6	10.051
1374.87	9.03421
1375.14	9.05112
1375.41	8.03366
1375.68	8.0487
1375.95	17.325
1376.22	11.1492
1376.49	13.21
1376.76	16.293
1377.03	12.1919
1377.3	14.2717
1377.57	12.2395
1377.84	13.2994
1378.11	17.4579
1378.38	16.449
1378.65	21.6165
1378.92	14.4074
1379.19	20.5994
1379.46	18.5429
1379.73	22.6626
1380	19.5465
1380.27	21.5975
1380.54	18.5011
1380.81	27.7821
1381.08	28.8123
1381.35	27.7732
1381.62	26.7321
1381.89	23.6418
1382.16	27.7442
1382.43	30.814
1382.7	32.8639
1382.97	28.7559
1383.24	36.9627
1383.51	41.0648
1383.78	39.0289
1384.05	42.1214
1384.32	40.0945
1384.59	56.5332
1384.86	60.6849
1385.13	85.3535
1385.39	103.875
1385.66	130.597
1385.93	170.699
1386.2	253.932
1386.47	398.78
1386.74	676.849
1387.01	1215.52
1387.28	2068.51
1387.55	2704.04
1387.82	2188.17
1388.09	1090.39
1388.36	508.083
1388.63	277.543
1388.9	169.749
1389.17	118.456
1389.44	88.6582
1389.71	66.0222
1389.98	53.6725
1390.25	47.5452
1390.51	39.3227
1390.78	37.2778
1391.05	30.1132
1391.32	32.1632
1391.59	27.0393
1391.86	27.0397
1392.13	22.9474
1392.4	15.7867
1392.67	21.9362
1392.94	15.8025
1393.21	21.9517
1393.48	17.8666
1393.75	17.8758
1394.02	18.9087
1394.28	15.8493
1394.55	17.9105
1394.82	16.9066
1395.09	14.8766
1395.36	15.9149
1395.63	21.0445
1395.9	12.8647
1396.17	10.8259
1396.44	13.9035
1396.71	11.8629
1396.98	12.8912
1397.25	11.8763
1397.51	7.79612
1397.78	14.9699
1398.05	13.9631
1398.32	10.9089
1398.59	9.89964
1398.86	14.0095
1399.13	10.9558
1399.4	14.0417
1399.66	4.84232
1399.93	16.1173
1400.2	13.0667
1400.47	14.1078
1400.74	12.0715
1401.01	14.1348
1401.28	12.099
1401.55	12.1204
1401.82	10.1008
1402.09	12.1837
1402.35	11.1863
1402.62	13.2626
1402.89	5.06846
1403.16	5.08144
1403.43	10.2212
1403.7	13.2932
1403.97	11.2546
1404.24	11.2647
1404.51	14.3502
1404.77	17.4327
1405.04	11.2841
1405.31	11.2898
1405.58	16.4215
1405.85	19.5039
1406.12	18.4867
1406.39	24.6495
1406.65	21.5892
1406.92	27.7557
1407.19	34.947
1407.46	41.1138
1407.73	48.3065
1408	62.6777
1408.27	93.4596
1408.53	115.019
1408.8	138.632
1409.07	146.864
1409.34	126.37
1409.61	86.3798
1409.88	62.7816
1410.15	36.1104
1410.41	28.9274
1410.68	22.7774
1410.95	23.8055
1411.22	14.5897
1411.49	17.6719
1411.76	19.7372
1412.02	13.6104
1412.29	9.53743
1412.56	11.6424
1412.83	9.62883
1413.1	9.62425
1413.36	9.58164
1413.63	10.622
1413.9	3.47268
1414.17	8.63392
1414.44	10.6955
1414.71	6.60177
1414.97	6.61318
1415.24	6.62506
1415.51	9.71905
1415.78	8.70646
1416.05	7.69383
1416.32	7.70824
1416.58	4.64144
1416.85	8.76537
1417.12	7.75276
1417.39	6.73861
1417.66	4.69531
1417.92	3.67976
1418.19	7.80349
1418.46	4.73157
1418.73	4.74405
1419	6.80821
1419.26	6.81425
1419.53	9.90126
1419.8	2.71696
1420.07	5.80383
1420.34	10.9422
1420.61	6.84104
1420.87	7.87506
1421.14	2.75519
1421.41	4.82475
1421.68	8.95411
1421.94	7.94684
1422.21	6.94565
1422.48	4.92135
1422.75	4.95915
1423.02	4.93823
1423.28	4.85608
1423.55	10.0154
1423.82	7.94673
1424.09	4.87347
1424.36	7.97382
1424.62	11.0696
1424.89	4.94799
1425.16	5.9694
1425.43	10.0988
1425.69	4.97822
1425.96	7.03683
1426.23	9.09106
1426.5	7.0434
1426.77	9.09561
1427.03	3.97254
1427.3	10.1183
1427.57	1.93182
1427.84	0.916838
1428.1	7.07099
1428.37	4.01152
1428.64	5.04852
1428.91	3.01394
1429.17	5.07709
1429.44	6.11781
1429.71	1.01191
1429.98	4.10317
1430.24	8.22198
1430.51	3.11683
1430.78	2.11097
1431.05	-1.97885
1431.31	2.13819
1431.58	9.32912
1431.85	4.20244
1432.12	9.33778
1432.38	3.18721
1432.65	5.2389
1432.92	5.23852
1433.19	4.21381
1433.45	0.120796
1433.72	6.27256
1433.99	6.29216
1434.26	3.23809
1434.52	4.27453
1434.79	7.35974
1435.06	4.29566
1435.32	4.30514
1435.59	3.28957
1435.86	4.32298
1436.13	-0.791147
1436.4	5.36371
1436.66	3.32323
1436.93	4.35697
1437.2	2.31688
1437.46	4.37391
1437.73	3.36102
1438	-2.77086
1438.26	9.53453
1438.53	-0.698313
1438.8	4.43578
1439.07	4.44972
1439.33	1.39099
1439.6	2.43285
1439.87	1.42163
1440.13	0.40826
1440.4	4.52094
1440.67	2.48164
1440.94	7.61808
1441.2	3.52286
1441.47	4.55579
1441.74	3.54482
1442	-0.545279
1442.27	2.5457
1442.54	1.52871
1442.8	-0.515572
1443.07	1.54207
1443.34	2.575
1443.61	4.63422
1443.87	2.59509
1444.14	5.68781
1444.41	3.65327
1444.67	4.69793
1444.94	2.65536
1445.21	1.63747
1445.47	1.64566
1445.74	3.70534
1446.01	3.71361
1446.27	1.6707
1446.54	4.75563
1446.81	2.71244
1447.07	4.77015
1447.34	4.77741
1447.61	3.76138
1447.87	2.74987
1448.14	1.74023
1448.41	4.82924
1448.68	-1.31469
1448.94	0.745062
1449.21	3.82887
1449.48	-0.266333
1449.74	5.89083
1450.01	0.773119
1450.27	1.80638
1450.54	2.83951
1450.81	3.87236
1451.07	3.87983
1451.34	1.83798
1451.61	-0.203083
1451.87	1.85477
1452.14	0.840378
1452.41	0.850986
1452.67	-0.161325
1452.94	-1.17393
1453.21	0.886236
1453.47	2.94413
1453.74	-1.14647
1454.01	2.96214
1454.27	-3.17621
1454.54	1.95691
1454.81	4.01434
1455.07	2.99895
1455.34	0.963533
1455.6	2.00079
1455.87	2.01092
1456.14	0.994337
1456.4	1.00052
1456.67	2.03084
1456.94	-2.05914
1457.2	5.12028
1457.47	1.03119
1457.74	-1.00775
1458	1.05103
1458.27	-0.986977
1458.53	4.14635
1458.8	1.08311
1459.07	2.11816
1459.33	2.12715
1459.6	2.13535
1459.86	2.14337
1460.13	4.19991
1460.4	2.15848
1460.66	0.116804
1460.93	3.19577
1461.2	1.15433
1461.46	4.23143
1461.73	3.21302
1461.99	1.17113
1462.26	0.152889
1462.53	-0.865234
1462.79	1.18489
1463.06	0.167017
1463.32	3.2416
1463.59	2.23415
1463.86	-1.83749
1464.12	2.27261
1464.39	2.2915
1464.65	3.32124
1464.92	1.23737
1465.18	1.22684
1465.45	0.20949
1465.72	5.33022
1465.98	-0.784645
1466.25	2.27744
1466.52	-0.779655
1466.78	1.2732
1467.05	1.28127
1467.31	3.32925
1467.58	0.277117
1467.84	0.286036
1468.11	3.35506
1468.38	2.34325
1468.64	1.33052
1468.91	1.33726
1469.17	5.42134
1469.44	-2.73061
1469.71	2.37093
1469.97	1.35786
1470.24	0.345612
1470.5	0.35301
1470.77	2.39754
1471.03	2.40216
1471.3	0.371126
1471.56	-0.639717
1471.83	1.40516
1472.1	2.43194
1472.36	1.42224
1472.63	1.43005
1472.89	1.43633
1473.16	2.45991
1473.42	-0.587029
1473.69	-0.579601
1473.95	2.4821
1474.22	1.47503
1474.48	1.48598
1474.75	0.477613
1475.02	0.486305
1475.28	2.52919
1475.55	-1.53509
1475.81	2.54183
1476.08	0.514139
1476.34	-2.53158
1476.61	1.5428
1476.88	0.532562
1477.14	2.57465
1477.41	2.58303
1477.67	5.64053
1477.94	-1.47195
1478.2	3.61658
1478.47	0.57295
1478.73	2.61087
1479	1.59958
1479.26	-3.47513
1479.53	2.62382
1479.79	-0.420527
1480.06	2.62729
1480.32	2.6313
1480.59	3.65226
1480.85	1.6285
1481.12	0.623629
1481.38	1.65018
1481.65	0.647991
1481.91	2.6911
1482.18	1.68845
1482.44	2.71314
1482.71	-0.321974
1482.97	-1.32713
1483.24	4.77476
1483.51	1.73656
1483.77	0.723017
1484.04	1.73563
1484.3	1.72336
1484.57	2.71588
1484.83	0.687204
1485.1	-0.33172
1485.36	-0.28669
1485.62	0.74733
1485.89	1.77858
1486.15	3.79364
1486.42	0.769369
1486.69	0.782806
1486.95	0.786654
1487.22	3.82896
1487.48	2.82126
1487.75	-0.21146
1488.01	2.83024
1488.28	2.83337
1488.54	-0.19845
1488.8	-1.20411
1489.07	-2.20895
1489.33	-1.19006
1489.6	2.86488
1489.86	6.92
1490.13	5.91426
1490.39	0.861063
1490.66	0.865322
1490.92	0.871523
1491.19	3.91195
1491.45	-1.13487
1491.72	-1.12547
1491.98	2.92665
1492.25	-2.12093
1492.51	1.93052
1492.78	1.93912
1493.04	-0.0757351
1493.3	-1.07905
1493.57	-1.07059
1493.83	2.98242
1494.1	-0.0398331
1494.36	-0.0317554
1494.63	-0.0259762
1494.89	4.01936
1495.16	0.988434
1495.42	5.03004
1495.69	0.994793
1495.95	2.00976
1496.22	2.01564
1496.48	1.01111
1496.74	3.03768
1497.01	-2.00032
1497.27	-0.983921
1497.54	3.06058
1497.8	0.0413971
1498.07	1.05921
1498.33	1.06814
1498.59	2.0865
1498.86	0.077322
1499.12	1.09671
1499.39	3.12599
1499.65	-1.91278
1499.92	0.114624
1500.18	1.13165
1500.45	-1.88921
1500.71	1.14606
1500.97	2.15883
1501.24	2.16547
1501.5	2.17302
1501.77	1.17133
1502.03	0.169044
1502.29	1.18204
1502.56	1.1854
1502.82	2.20031
1503.09	0.187162
1503.35	2.21105
1503.62	-0.803707
1503.88	4.24754
1504.14	0.222202
1504.41	3.2549
1504.67	3.2608
1504.94	3.26569
1505.2	3.26864
1505.47	3.26701
1505.73	-1.76412
1505.99	8.31774
1506.26	0.26618
1506.52	2.29291
1506.78	4.31685
1507.05	1.30299
1507.31	2.31881
1507.58	2.32545
1507.84	4.34695
1508.1	4.35519
1508.37	-0.674046
1508.63	-1.67336
1508.9	-0.658007
1509.16	4.38771
1509.42	-0.641136
1509.69	-1.63837
1509.95	-0.626251
1510.22	1.39321
1510.48	3.4109
1510.74	0.391924
1511.01	3.41252
1511.27	3.40876
1511.53	2.39898
1511.8	6.41688
1512.06	-1.62427
1512.33	1.39197
1512.59	0.390854
1512.85	0.394728
1513.12	0.400217
1513.38	0.410639
1513.64	0.42696
1513.91	-1.57125
1514.17	1.44815
1514.44	2.45616
1514.7	2.45777
1514.96	0.452915
1515.23	1.45826
1515.49	2.46295
1515.75	1.46249
1516.02	-0.537548
1516.28	-0.531309
1516.54	2.48298
1516.81	3.49252
1517.07	-0.510113
1517.33	-0.501417
1517.6	-2.49641
1517.86	-1.48447
1518.13	0.530298
1518.39	3.54836
1518.65	3.55785
1518.92	1.56076
1519.18	-0.437073
1519.44	0.573673
1519.71	1.58295
1519.97	0.585875
1520.23	-1.41225
1520.5	0.603386
1520.76	0.612762
1521.02	-0.382235
1521.29	-1.37852
1521.55	0.634235
1521.81	-2.36993
1522.08	0.644903
1522.34	0.650343
1522.6	-0.347969
1522.87	4.66728
1523.13	-1.34714
1523.39	1.66096
1523.66	1.66392
1523.92	-0.335323
1524.18	4.67587
1524.45	-0.32229
1524.71	0.68774
1524.97	1.69744
1525.24	-0.295897
1525.5	2.72025
1525.76	3.73504
1526.03	2.74508
1526.29	-1.25484
1526.55	1.75968
1526.81	-1.24222
1527.08	0.768139
1527.34	-1.23027
1527.6	0.779697
1527.87	0.784864
1528.13	-0.211756
1528.39	-0.206148
1528.66	-0.199883
1528.92	0.808649
1529.18	1.81651
1529.44	2.82218
1529.71	-0.176109
1529.97	1.83523
1530.23	-1.15856
1530.5	-2.14958
1530.76	1.86846
1531.02	-1.12946
1531.28	1.8827
1531.55	2.89249
1531.81	-3.11437
1532.07	0.901901
1532.34	-1.09072
1532.6	0.927713
1532.86	-0.0616226
1533.13	0.951714
1533.39	0.960712
1533.65	-1.03828
1533.91	1.97735
1534.18	0.980015
1534.44	1.98805
1534.7	0.990627
1534.96	5.00574
1535.23	-0.00953293
1535.49	2.99714
1535.75	0.996193
1536.01	1.99826
1536.28	1.99783
1536.54	-2.00491
1536.8	-0.999647
1537.06	1.00348
1537.33	-0.989716
1537.59	1.01461
1537.85	0.0154934
1538.11	0.0204277
1538.38	3.02346
1538.64	2.0351
1538.9	0.0523033
1539.17	1.07394
1539.43	1.09137
1539.69	0.104517
1539.95	2.12481
1540.22	0.13233
1540.48	-1.86254
1540.74	-0.860437
1541	2.15327
1541.27	-1.85383
1541.53	1.15479
1541.79	-2.84986
1542.05	9.17037
1542.32	-1.84232
1542.58	1.16388
1542.84	0.165493
1543.1	2.16776
1543.36	3.16621
1543.63	-1.82652
1543.89	0.181091
1544.15	-0.808994
1544.41	-0.79649
1544.67	0.214182
1544.94	2.23137
1545.2	-1.76274
1545.46	2.25252
1545.72	1.26076
1545.99	1.26605
1546.25	-1.73164
1546.51	4.28788
1546.77	-0.71245
1547.04	0.299168
1547.3	-1.69999
1547.56	1.30003
1547.82	-1.69684
1548.08	1.31227
1548.35	0.328529
1548.61	1.3205
1548.87	0.304544
1549.13	-0.695538
1549.39	0.319614
1549.66	0.342237
1549.92	-0.623047
1550.18	-0.599379
1550.44	0.437834
1550.71	-0.575844
1550.97	-1.57074
1551.23	-1.56591
1551.49	5.45723
1551.75	3.46545
1552.01	-1.53834
1552.28	1.47894
1552.54	-0.525167
1552.8	0.469595
1553.06	0.472771
1553.32	3.48761
1553.58	-2.52727
1553.85	-0.51969
1554.11	-0.518484
1554.37	0.482847
1554.63	0.486881
1554.89	0.492004
1555.16	1.49986
1555.42	-0.496044
1555.68	-0.488258
1555.94	-3.49002
1556.2	-1.48023
1556.46	1.53245
1556.73	-1.46512
1556.99	-1.45806
1557.25	0.551281
1557.51	-0.446299
1557.77	-4.451
1558.04	1.55894
1558.3	-0.442749
1558.56	-0.441734
1558.82	-1.44021
1559.08	3.56211
1559.34	-1.43407
1559.61	1.56872
1559.87	0.573488
1560.13	0.5784
1560.39	-2.41446
1560.65	-0.409746
1560.91	-2.40135
1561.17	0.606222
1561.44	-2.38218
1561.7	-1.37037
1561.96	0.636894
1562.22	-0.357563
1562.48	-0.352781
1562.74	3.65471
1563	-3.34067
1563.27	1.66368
1563.53	3.67614
1563.79	0.689375
1564.05	0.698767
1564.31	2.7064
1564.57	-0.296295
1564.83	-1.31579
1565.09	-1.34883
1565.36	0.614029
1565.62	-0.307808
1565.88	-2.27228
1566.14	-0.271357
1566.4	-1.27798
1566.66	-0.261755
1566.92	1.76289
1567.18	0.767574
1567.45	0.76005
1567.71	-2.23225
1567.97	0.775763
1568.23	-3.2162
1568.49	-1.21083
1568.75	-5.20877
1569.01	-1.20851
1569.27	0.795868
1569.54	0.803497
1569.8	-0.189241
1570.06	-1.18219
1570.32	-1.17625
1570.58	-0.171387
1570.84	-1.16592
1571.1	0.836092
1571.36	1.83754
1571.62	-1.15374
1571.89	1.84703
1572.15	-1.14652
1572.41	1.85248
1572.67	-1.13913
1572.93	0.860598
1573.19	-2.13033
1573.45	-0.128489
1573.71	-3.11412
1573.97	-1.10809
1574.23	-0.0995922
1574.49	-0.0891838
1574.76	-1.07796
1575.02	-0.069294
1575.28	0.937429
1575.54	0.942064
1575.8	0.947817
1576.06	1.95158
1576.32	-0.0459099
1576.58	-0.046545
1576.84	-0.0468941
1577.1	-2.04276
1577.36	-3.03926
1577.62	-3.03782
1577.88	-0.0438728
1578.14	0.957674
1578.41	-1.03047
1578.67	0.969107
1578.93	-1.01878
1579.19	-3.00619
1579.45	-0.00681114
1579.71	0.00053215
1579.97	-0.990292
1580.23	1.00953
1580.49	-1.97774
1580.75	2.01337
1581.01	1.02006
1581.27	0.0257759
1581.53	0.0274944
1581.79	0.0319023
1582.05	2.02902
1582.31	1.03712
1582.57	-0.95043
1582.84	0.0508518
1583.1	1.05255
1583.36	0.0603638
1583.62	-1.92611
1583.88	0.0730133
1584.14	0.0800037
1584.4	1.08274
1584.66	-0.903702
1584.92	-2.8911
1585.18	2.09463
1585.44	1.10308
1585.7	0.108976
1585.96	2.10125
1586.22	-1.87796
1586.48	-0.879208
1586.74	3.10497
1587	-2.86108
1587.26	0.128515
1587.52	-2.85065
1587.78	0.141037
1588.04	1.1436
1588.3	-1.83367
1588.56	-2.82152
1588.82	1.16797
1589.08	4.16228
1589.34	1.18204
1589.6	0.191702
1589.87	0.198544
1590.13	2.19774
1590.39	-1.77793
1590.65	2.21065
1590.91	-0.771299
1591.17	-0.76675
1591.43	-0.762474
1591.69	0.235451
1591.95	1.23059
1592.21	0.236303
1592.47	-1.74962
1592.73	-0.755075
1592.99	0.238344
1593.25	0.23616
1593.51	1.23026
1593.77	-1.74694
1594.03	1.23791
1594.29	0.251793
1594.55	1.25462
1594.81	1.2625
1595.07	2.26443
1595.33	-0.72064
1595.59	1.27086
1595.85	1.27628
1596.11	1.28181
1596.37	0.294571
1596.63	1.29449
1596.89	0.308039
1597.15	2.30239
1597.41	-0.672848
1597.66	-0.668772
1597.92	1.32067
1598.18	2.31409
1598.44	0.329088
1598.7	3.30884
1598.96	6.28795
1599.22	0.336166
1599.48	3.3147
1599.74	0.341221
1600	-1.63999
1600.26	-0.646662
1600.52	3.31845
1600.78	0.344608
1601.04	5.29682
1601.3	-0.645573
1601.56	-1.63373
1601.82	1.33819
1602.08	-2.6188
1602.34	0.351198
1602.6	0.35261
1602.86	2.33246
1603.12	-1.62019
1603.38	-1.61636
1603.64	2.3433
1603.9	-1.60611
1604.16	-2.58906
1604.41	0.382595
1604.67	-1.58938
1604.93	1.38782
1605.19	-1.57486
1605.45	3.30009
1605.71	1.48186
1605.97	0.438133
1606.23	0.493362
1606.49	0.474174
1606.75	-3.21572
1607.01	3.16107
1607.27	-0.442394
1607.53	0.525991
1607.79	1.45135
1608.05	-0.351965
1608.31	-3.03082
1608.56	0.503256
1608.82	1.92614
1609.08	1.91409
1609.34	1.08695
1609.6	0.10379
1609.86	0.404121
1610.12	-0.323763
1610.38	0.373611
1610.64	-0.170038
1610.9	0.714516
1611.16	0.491322
1611.42	-0.376232
1611.68	0.250292
1611.93	-0.413866
1612.19	1.69485
1612.45	0.660681
1612.71	-2.0614
1612.97	1.6158
1613.23	0.291542
1613.49	3.08665
1613.75	-0.786775
1614.01	-0.170811
1614.27	0.188936
1614.53	0.160757
1614.78	-0.293295
1615.04	-0.113256
1615.3	0.619175
1615.56	0.309454
1615.82	-0.0450478
1616.08	-1.19335
1616.34	0.139338
1616.6	0.98464
1616.86	0.996199
1617.12	-0.164042
1617.37	-2.31941
1617.63	-0.510353
1617.89	-1.25708
1618.15	1.33916
1618.41	1.26622
1618.67	-1.43509
1618.93	-0.431295
1619.19	0.870911
1619.44	-0.554598
1619.7	-1.8212
1619.96	0.855434
1620.22	0.399971
1620.48	-0.180355
1620.74	0.915871
1621	-0.556496
1621.26	0.987471
1621.51	-1.2608
1621.77	-1.95242
1622.03	1.60729
1622.29	0.0134544
1622.55	0.322527
1622.81	0.701042
1623.07	1.08008
1623.33	0.0290222
1623.58	1.76033
1623.84	-1.55437
1624.1	0.61318
1624.36	-0.165173
1624.62	-2.44403
1624.88	0.0136375
1625.14	-0.941534
1625.39	-0.805947
1625.65	-0.0383015
1625.91	-0.24614
1626.17	1.84562
1626.43	0.191422
1626.69	-0.291622
1626.94	0.0561447
1627.2	0.133123
1627.46	0.0127983
1627.72	1.03221
1627.98	1.38749
1628.24	-0.781255
1628.5	-1.40745
1628.75	0.63868
1629.01	-1.28925
1629.27	-0.5019
1629.53	-2.14557
1629.79	-1.65226
1630.05	-0.158993
1630.3	-0.175863
1630.41	-0.169729
1630.67	0.820332
1630.94	4.76702
1631.2	-3.10631
1631.46	2.81353
1631.72	3.80564
1631.98	-1.11651
1632.24	-4.06358
1632.5	1.86074
1632.77	0.870892
1633.03	5.79603
1633.29	-1.0965
1633.55	2.85278
1633.81	-0.097147
1634.07	-0.0917931
1634.33	-0.0869007
1634.59	1.88873
1634.86	1.89256
1635.12	0.910418
1635.38	-0.0719509
1635.64	-0.0690861
1635.9	0.918804
1636.16	1.90635
1636.42	-0.0616264
1636.68	0.924959
1636.95	2.89647
1637.21	0.930733
1637.47	-0.0502262
1637.73	1.92171
1637.99	-0.0441799
1638.25	0.944315
1638.51	-4.95702
1638.77	-1.99942
1639.04	-0.0262089
1639.3	-1.00608
1639.56	0.966717
1639.82	1.9551
1640.08	-0.00678253
1640.34	0.000682831
1640.6	0.991575
1640.86	0.0112209
1641.12	0.998718
1641.38	2.97077
1641.65	-0.963711
1641.91	2.97781
1642.17	0.0283394
1642.43	1.0166
1642.69	1.02052
1642.95	0.0406399
1643.21	0.044239
1643.47	1.03134
1643.73	2.0178
1644	1.03491
1644.26	0.0545998
1644.52	1.04239
1644.78	1.05005
1645.04	-2.88039
1645.3	2.04601
1645.56	3.03335
1645.82	1.06764
1646.08	0.0862198
1646.34	1.07282
1646.6	2.06028
1646.86	-0.888753
1647.12	-0.885487
1647.39	-1.86598
1647.65	2.07269
1647.91	5.02912
1648.17	7.98891
1648.43	0.127092
1648.69	4.08178
1648.95	0.144636
1649.21	-0.836334
1649.47	-0.834087
1649.73	0.15626
1649.99	2.137
1650.25	3.12884
1650.51	1.1671
1650.77	4.13045
1651.03	-0.790266
1651.29	1.18541
1651.55	2.17512
1651.82	8.09257
1652.08	4.15549
1652.34	2.18602
1652.6	6.12962
1652.86	3.17772
1653.12	5.15304
1653.38	2.20283
1653.64	2.20901
1653.9	2.21424
1654.16	2.21941
1654.42	4.19669
1654.68	2.23264
1654.94	2.24141
1655.2	2.25167
1655.46	-1.68481
1655.72	1.28302
1655.98	1.28955
1656.24	1.29499
1656.5	2.28667
1656.76	0.315745
1657.02	1.30532
1657.28	3.28172
1657.54	3.28465
1657.8	1.31366
1658.06	-0.657512
1658.33	2.30392
1658.59	2.3054
1658.85	0.334475
1659.11	3.29437
1659.37	0.337421
1659.63	1.32601
1659.89	-0.639802
1660.15	2.32466
1660.41	3.31812
1660.67	-2.59253
1660.93	1.3608
1661.19	0.380705
1661.45	1.37423
1661.71	0.382057
1661.97	-3.55303
1662.23	-0.563698
1662.49	2.40987
1662.75	2.40734
1663.01	0.435772
1663.27	-0.572408
1663.53	0.4129
1663.79	1.41512
1664.05	0.433762
1664.31	3.40585
1664.57	-0.532878
1664.83	1.44198
1665.09	0.428813
1665.35	2.43305
1665.61	2.46145
1665.87	-0.502994
1666.13	-0.494157
1666.39	0.426776
1666.65	2.4275
1666.91	2.44962
1667.17	0.475792
1667.43	0.478327
1667.69	-0.507102
1667.95	0.48155
1668.21	-0.498294
1668.46	0.50392
1668.72	1.5004
1668.99	1.50516
1669.25	0.521953
1669.5	-1.44902
1669.76	-1.44867
1670.02	-1.44039
1670.28	1.53857
1670.54	3.51953
1670.8	1.54447
1671.06	0.559278
1671.32	0.562443
1671.58	2.54535
1671.84	1.56164
1672.1	-1.39951
1672.36	-1.39603
1672.62	1.57372
1672.88	-0.398857
1673.14	0.594412
1673.4	0.599721
1673.66	-2.36084
1673.92	-0.376987
1674.18	2.59589
1674.44	1.6133
1674.7	2.61035
1674.96	0.637194
1675.22	1.63179
1675.47	-1.33352
1675.73	1.63911
1675.99	2.63366
1676.25	3.62811
1676.51	0.662964
1676.77	1.65595
1677.03	-0.32077
1677.29	2.64999
1677.55	-0.317378
1677.81	-0.316809
1678.07	-0.316256
1678.33	0.673859
1678.59	-4.26786
1678.85	0.677547
1679.11	-0.308534
1679.37	1.67038
1679.63	-0.30406
1679.88	0.686679
1680.14	0.688697
1680.4	0.690876
1680.66	0.693428
1680.92	0.69662
1681.18	0.700164
1681.44	-2.25991
1681.7	2.68344
1681.96	-0.276343
1682.22	-0.272656
1682.48	0.718367
1682.73	-0.266141
1682.99	0.72533
1683.25	-1.24688
1683.51	-0.255984
1683.77	0.73384
1684.03	0.735499
1684.29	0.738034
1684.55	1.72849
1684.81	0.744228
1685.07	-4.18958
1685.33	-0.236086
1685.58	1.74272
1685.84	1.74715
1686.1	0.765698
1686.36	-0.215832
1686.62	0.776815
1686.88	-0.207807
1687.14	0.782133
1687.4	-0.20385
1687.66	0.785754
1687.92	-0.199742
1688.17	-0.197962
1688.43	1.77707
1688.69	-1.18357
1688.95	-1.18246
1689.21	-1.18148
1689.47	1.77823
1689.73	0.791966
1689.99	-0.188185
1690.25	1.79093
1690.5	-0.176867
1690.76	1.8013
1691.02	1.80547
1691.28	-2.13592
1691.54	-0.157913
1691.8	0.83219
1692.06	0.834394
1692.31	5.76818
1692.57	-1.13785
1692.83	-1.13793
1693.09	0.833376
1693.35	-0.1536
1693.61	-1.13798
1693.87	-0.152333
1694.13	-0.151828
1694.39	1.82013
1694.64	1.82424
1694.9	2.81403
1695.16	0.848141
1695.42	0.852664
1695.68	-0.127739
1695.94	-1.10749
1696.19	-2.0888
1696.45	-1.10051
1696.71	-2.0843
1696.97	-1.0987
1697.23	-1.09913
1697.49	-1.09927
1697.74	-2.08302
1698	0.870965
1698.26	0.871844
1698.52	-0.110567
1698.78	-2.07583
1699.04	1.86351
1699.3	0.883739
1699.55	-1.08081
1699.81	-0.0942097
1700.07	0.890702
1700.33	-1.07401
1700.59	1.87986
1700.85	-4.02
1701.1	-0.0837679
1701.36	-0.0831766
1701.62	-1.06596
1701.88	2.86674
1702.14	0.900929
1702.4	-1.06323
1702.65	1.88742
1702.91	-1.0578
1703.17	-2.03813
1703.43	-2.0359
1703.69	0.914867
1703.94	-0.0625324
1704.2	-1.04048
1704.46	-1.03722
1704.72	-0.052145
1704.98	-0.0493689
1705.24	-0.045949
1705.49	-0.0437384
1705.75	-0.0432472
1706.01	-1.02549
1706.27	-1.02571
1706.53	0.93718
1706.78	-0.0446692
1707.04	0.936115
1707.3	0.934598
1707.56	-0.0478878
1707.82	-1.02967
1708.07	3.86819
1708.33	0.925909
1708.59	-1.03402
1708.85	-1.03359
1709.11	-2.98995
1709.36	-0.0504723
1709.62	-0.0472021
1709.88	0.935335
1710.14	-1.99783
1710.4	-1.01367
1710.65	1.92903
1710.91	-1.00423
1711.17	-0.0203753
1711.43	-0.016243
1711.68	-1.97249
1711.94	0.966255
1712.2	0.96349
1712.46	-0.997088
1712.72	0.955777
1712.97	-0.0241661
1713.23	0.949575
1713.49	-1.98279
1713.75	-2.95858
1714.01	0.950394
1714.26	0.952352
1714.52	1.93137
1714.78	-0.0187197
1715.04	-0.987702
1715.29	-0.983453
1715.55	0.973094
1715.81	-1.95637
1716.07	-0.00200081
1716.32	-0.00258732
1716.58	1.94824
1716.84	0.968933
1717.1	4.86626
1717.35	-1.96551
1717.61	1.93089
1717.87	-0.995434
1718.13	-0.022337
1718.38	0.951625
1718.64	-0.0202351
1718.9	-0.0168133
1719.16	1.93291
1719.41	-0.0122232
1719.67	-0.00676346
1719.93	-0.00434017
1720.19	-0.00343418
1720.44	-0.00364208
1720.7	-0.00512981
1720.96	1.94112
1721.22	-0.977634
1721.47	-2.92281
1721.73	-0.978579
1721.99	1.93654
1722.25	2.90694
1722.5	-0.00855255
1722.76	0.962677
1723.02	-0.00785542
1723.27	-0.977139
1723.53	-1.94526
1723.79	-0.972674
1724.05	1.942
1724.3	1.94128
1724.56	1.9389
1724.82	-1.9449
1725.08	-0.00732327
1725.33	-0.00959301
1725.59	-0.978577
1725.85	-0.00720882
1726.11	-0.00354576
1726.36	0.966562
1726.62	-3.87798
1726.88	0.964621
1727.13	-2.90532
1727.39	-2.90059
1727.65	-1.93054
1727.9	0.00588894
1728.16	0.964748
1728.42	-0.988667
1728.68	1.89294
1728.93	-0.0354671
1729.19	-1.95494
1729.45	1.91815
1729.7	1.92063
1729.96	-0.0156956
1730.22	-0.981213
1730.47	-0.972172
1730.73	0.973065
1730.99	-0.956159
1731.25	0.0131731
1731.5	0.981919
1731.76	-1.91555
1732.02	0.984781
1732.27	-0.946652
1732.53	0.0197201
1732.79	-1.91268
1733.04	-0.948973
1733.3	0.977716
1733.56	3.86876
1733.81	-0.955879
1734.07	0.00647449
1734.33	1.93182
1734.59	-1.92444
1734.84	0.963538
1735.1	0.962423
1735.36	-0.00052166
1735.61	2.88819
1735.87	1.92693
1736.13	0.965279
1736.38	-0.958488
1736.64	2.89068
1736.9	3.85276
1737.15	0.00594425
1737.41	-2.87855
1737.67	-0.955181
1737.92	-1.91673
1738.18	-1.91666
1738.44	1.92682
1738.69	0.00392532
1738.95	0.00197601
1739.21	0.958206
1739.46	-0.00575447
1739.72	-0.00908756
1739.98	1.90574
1740.23	0.945284
1740.49	0.944446
1740.74	1.90155
1741	0.942822
1741.26	2.85769
1741.51	-0.972158
1741.77	-0.970601
1742.03	-0.968477
1742.28	-1.92465
1742.54	-0.0087738
1742.8	-0.0066576
1743.05	0.952906
1743.31	-0.96094
1743.57	0.951973
1743.82	-1.91734
1744.08	0.952736
1744.33	-1.91422
1744.59	-0.954999
1744.85	1.91756
1745.1	-0.949592
1745.36	0.964829
1745.62	-1.9039
1745.87	0.00789261
1746.13	-1.90526
1746.38	2.87099
1746.64	-0.951279
1746.9	-0.953031
1747.15	1.91137
1747.41	1.91011
1747.67	0.00279331
1747.92	0.959894
1748.18	-0.946243
1748.44	0.0117464
1748.69	0.970322
1748.95	2.88483
1749.2	0.0255518
1749.46	2.89702
1749.72	1.94833
1749.97	-0.912206
1750.23	-1.86304
1750.48	0.0522375
1750.74	0.0563841
1751	1.97042
1751.25	1.96969
1751.51	0.0560322
1751.76	-1.85607
1752.02	-0.901284
1752.28	0.0530481
1752.53	1.00682
1752.79	-2.8116
1753.04	0.0514708
1753.3	-2.81068
1753.56	1.00526
1753.81	1.00422
1754.07	-1.85686
1754.32	-0.902852
1754.58	1.00433
1754.84	1.95811
1755.09	0.0522442
1755.35	-0.900842
1755.6	-0.901499
1755.86	-0.902546
1756.12	3.85625
1756.37	-2.80962
1756.63	-0.907893
1756.88	0.994072
1757.14	0.0434589
1757.39	-4.71027
1757.65	1.0015
1757.9	1.00732
1758.16	-0.892237
1758.42	2.91671
1758.67	1.01627
1758.93	1.97089
1759.18	-0.881132
1759.44	2.92709
1759.69	-0.877906
1759.95	0.0747356
1760.21	0.0756712
1760.46	-0.875086
1760.72	1.97795
1760.97	-0.875422
1761.23	2.92768
1761.48	3.87897
1761.74	0.0777502
1762	-1.81999
1762.25	-0.864873
1762.51	0.089448
1762.76	0.0915594
1763.02	1.04466
1763.27	1.04788
1763.53	2.00261
1763.78	0.104896
1764.04	-0.83905
1764.29	2.97351
1764.55	0.12323
1764.81	1.07926
1765.06	-2.72495
1765.32	1.08627
1765.57	2.0411
1765.83	2.04332
1766.08	-1.76324
1766.34	2.04558
1766.59	0.143798
1766.85	0.145447
1767.1	0.146321
1767.36	0.146148
1767.61	0.146894
1767.87	-1.75575
1768.12	-0.801922
1768.38	0.148572
1768.64	1.09347
1768.89	2.98828
1769.15	-0.817893
1769.4	1.08204
1769.66	0.135809
1769.91	3.94375
1770.17	-2.70289
1770.42	2.0502
1770.68	1.10417
1770.93	0.162302
1771.19	1.11978
1771.44	-1.73021
1771.7	1.12639
1771.95	3.03418
1772.21	2.08861
1772.46	2.09318
1772.72	4.95234
1772.97	2.10169
1773.23	3.05752
1773.48	2.10949
1773.74	1.16098
1773.99	-0.740004
1774.25	1.16756
1774.5	1.17202
1774.76	1.17582
1775.01	3.08775
1775.27	1.19164
1775.52	4.05662
1775.78	-0.706046
1776.03	3.10956
1776.29	1.20387
1776.54	1.20376
1776.8	-0.702388
1777.05	2.15665
1777.31	1.2031
1777.56	1.20246
1777.82	2.15411
1778.07	0.248805
1778.33	2.15142
1778.58	2.14906
1778.84	2.14729
1779.09	-1.65764
1779.35	4.05469
1779.6	1.20588
1779.85	1.20915
1780.11	2.16446
1780.36	4.07208
1780.62	3.12359
1780.87	3.12632
1781.13	5.03379
1781.38	2.18161
1781.64	0.28165
1781.89	2.19179
1782.15	3.15008
1782.4	1.24901
1782.66	2.20598
1782.91	-0.649114
1783.17	4.12103
1783.42	0.312337
1783.68	1.27037
1783.93	0.322272
1784.18	1.28158
1784.44	0.331688
1784.69	2.2428
1784.95	3.1987
1785.2	-0.616633
1785.46	3.19963
1785.71	0.339194
1785.97	1.29591
1786.22	0.345886
1786.47	4.16766
1786.73	2.26542
1786.98	3.22749
1787.24	3.23826
1787.49	3.25143
1787.75	3.26534
1788	2.32048
1788.25	8.07149
1788.51	4.2478
1788.76	6.17169
1789.02	1.38999
1789.27	5.22843
1789.53	2.35764
1789.78	2.36226
1790.04	1.407
1790.29	4.28463
1790.54	0.451642
1790.8	1.4035
1791.05	4.27411
1791.31	4.27403
1791.56	1.40228
1791.82	6.19348
1792.07	3.32286
1792.32	8.11614
1792.58	4.2888
1792.83	3.33438
1793.09	2.37772
1793.34	1.42373
1793.59	3.34311
1793.85	2.38813
1794.1	3.34594
1794.36	5.26244
1794.61	3.36028
1794.86	4.33388
1795.12	2.42395
1795.37	0.509294
1795.63	1.47404
1795.88	3.39961
1796.14	5.32604
1796.39	3.41078
1796.64	3.4164
1796.9	2.46057
1797.15	2.46512
1797.4	5.3532
1797.66	2.47304
1797.91	3.43797
1798.17	5.36392
1798.42	3.44243
1798.67	4.40445
1798.93	1.51993
1799.18	6.32506
1799.44	1.51769
1799.69	3.43882
1799.94	2.47761
1800.2	2.47778
1800.45	3.43895
1800.7	5.36107
1800.96	6.32309
1801.21	3.44384
1801.47	4.40726
1801.72	5.37138
1801.97	5.3755
1802.23	4.4195
1802.48	3.46381
1802.73	2.50825
1802.99	0.590887
1803.24	3.47997
1803.5	0.59778
1803.75	2.52411
1804	1.56706
1804.26	4.45856
1804.51	3.50165
1804.76	4.4706
1805.02	2.55164
1805.27	5.4468
1805.53	7.37924
1805.78	3.53108
1806.03	4.49932
1806.29	4.50353
1806.54	2.57912
1806.79	6.43648
1807.05	3.54708
1807.3	5.47666
1807.55	2.58739
1807.81	3.55346
1808.06	2.59195
1808.31	3.55831
1808.57	3.56087
1808.82	7.41945
1809.07	5.49402
1809.33	5.4968
1809.58	5.49945
1809.83	3.57352
1810.09	4.53936
1810.34	5.50418
1810.59	3.57713
1810.85	1.65061
1811.1	5.50827
1811.35	4.54599
1811.61	3.58419
1811.86	2.62326
1812.11	7.4485
1812.37	5.52499
1812.62	1.67195
1812.87	3.60458
1813.13	3.60808
1813.38	2.64805
1813.63	5.54986
1813.89	6.52224
1814.14	3.63375
1814.39	2.67409
1814.65	3.64534
1814.9	4.61571
1815.15	5.58529
1815.4	0.755478
1815.66	6.55746
1815.91	4.62684
1816.16	5.59761
1816.42	7.53224
1816.67	3.66692
1816.92	1.73003
1817.18	2.68962
1817.43	6.55228
1817.68	4.62455
1817.94	4.63052
1818.19	8.50365
1818.44	5.60582
1818.7	2.70874
1818.95	3.67856
1819.2	5.61601
1819.45	1.75274
1819.71	4.65658
1819.96	3.69386
1820.21	4.66512
1820.46	0.799754
1820.72	6.60692
1820.97	3.70955
1821.22	5.64935
1821.48	1.7828
1821.73	4.68974
1821.98	2.75718
1822.24	6.63183
1822.49	1.79452
1822.74	3.73307
1822.99	6.63765
1823.25	2.76568
1823.5	7.60472
1823.75	3.73581
1824.01	3.73919
1824.26	7.61473
1824.51	4.71386
1824.76	5.68586
1825.02	0.847762
1825.27	4.7239
1825.52	7.63096
1825.77	4.72712
1826.03	2.79259
1826.28	3.76304
1826.53	2.79672
1826.78	3.76847
1827.04	4.74065
1827.29	3.77573
1827.54	2.80999
1827.8	4.74858
1828.05	2.81184
1828.3	4.74852
1828.55	11.5276
1828.81	4.74789
1829.06	5.71759
1829.31	6.6867
1829.56	3.78171
1829.82	4.74892
1830.07	4.74877
1830.32	5.71647
1830.57	-0.0894127
1830.83	5.72387
1831.08	5.72816
1831.33	3.79542
1831.58	3.79921
1831.83	4.77202
1832.09	5.74551
1832.34	5.75143
1832.59	4.78561
1832.84	6.72554
1833.1	5.75882
1833.35	6.73193
1833.6	6.73412
1833.85	2.85827
1834.11	5.76002
1834.36	5.75033
1834.61	6.71071
1834.86	1.86492
1835.11	5.73224
1835.37	5.72927
1835.62	0.894788
1835.87	4.7778
1836.12	3.8854
1836.37	4.82783
1836.63	5.77846
1836.88	6.74132
1837.13	5.75852
1837.38	4.77885
1837.64	6.69464
1837.89	1.85717
1838.14	1.86553
1838.39	5.76701
1838.64	2.87117
1838.9	6.75337
1839.15	9.66433
1839.4	2.88562
1839.65	4.82383
1839.91	4.80645
1840.16	4.79619
1840.41	4.78701
1840.66	7.67885
1840.91	6.70416
1841.16	5.73099
1841.42	3.79418
1841.67	3.78926
1841.92	1.85545
1842.17	6.67685
1842.42	0.893068
1842.68	4.75212
1842.93	6.68439
1843.18	5.72087
1843.43	4.757
1843.68	3.79255
1843.94	-0.0634413
1844.19	4.76255
1844.44	5.72762
1844.69	6.69178
1844.94	2.83564
1845.19	2.83991
1845.45	1.88346
1845.7	5.7539
1845.95	4.79969
1846.2	2.87235
1846.45	6.71972
1846.7	5.72505
1846.96	3.77828
1847.21	4.73884
1847.46	4.74442
1847.71	6.68214
1847.96	6.68457
1848.21	4.75135
1848.47	0.898917
1848.72	2.82489
1848.97	1.85977
1849.22	2.81864
1849.47	6.6628
1849.72	4.73368
1849.98	4.72887
1850.23	6.64693
1850.48	6.6434
1850.73	3.75857
1850.98	2.79646
1851.23	3.75591
1851.48	2.79562
1851.74	1.8363
1851.99	5.67856
1852.24	4.71974
1852.49	2.8005
1852.74	1.84088
1852.99	7.6018
1853.24	3.76016
1853.5	5.67682
1853.75	6.63169
1854	4.70768
1854.25	6.62259
1854.5	2.78633
1854.75	-0.0916452
1855.01	4.69617
1855.26	5.65019
1855.51	6.60711
1855.76	2.77535
1856.01	3.73405
1856.26	2.77781
1856.51	5.65208
1856.76	3.73684
1857.02	2.77847
1857.27	2.77785
1857.52	4.6918
1857.77	5.64704
1858.02	3.73
1858.27	5.64076
1858.52	4.6809
1858.77	3.72111
1859.02	4.6739
1859.28	3.7171
1859.53	1.80692
1859.78	2.76386
1860.03	5.63572
1860.28	6.59782
1860.53	6.60193
1860.78	9.47646
1861.03	3.74158
1861.28	6.61597
1861.53	4.70344
1861.79	4.70302
1862.04	5.65745
1862.29	3.7412
1862.54	1.8256
1862.79	2.77919
1863.04	4.68826
1863.29	3.72998
1863.54	3.72795
1863.79	3.72596
1864.04	4.67929
1864.3	4.67707
1864.55	4.67415
1864.8	1.80678
1865.05	3.71139
1865.3	4.66026
1865.55	5.60736
1865.8	3.69417
1866.05	1.78248
1866.3	3.68169
1866.55	6.53096
1866.8	2.71811
1867.05	4.61554
1867.3	3.6612
1867.56	2.70936
1867.81	2.70889
1868.06	4.61063
1868.31	5.56342
1868.56	6.51628
1868.81	3.66462
1869.06	3.66477
1869.31	6.51658
1869.56	0.813498
1869.81	4.61587
1870.06	1.76486
1870.31	3.66631
1870.56	3.66715
1870.82	0.816795
1871.07	2.7171
1871.32	4.61642
1871.57	1.76435
1871.82	2.71388
1872.07	2.71308
1872.32	3.66035
1872.57	5.55704
1872.82	3.65758
1873.07	3.65809
1873.32	5.55576
1873.57	4.60472
1873.82	13.1417
1874.07	2.70163
1874.32	4.59529
1874.57	5.53972
1874.82	3.63967
1875.07	6.47826
1875.32	1.73483
1875.58	2.67428
1875.83	3.61651
1876.08	4.55875
1876.33	5.50197
1876.58	2.66148
1876.83	5.4884
1877.08	4.53013
1877.33	8.2949
1877.58	1.71877
1877.83	3.65351
1878.08	5.51734
1878.33	6.46146
1878.58	6.4669
1878.83	5.53925
1879.08	7.43825
1879.33	4.59047
1879.58	2.69394
1879.83	5.53479
1880.08	2.69595
1880.33	3.64559
1880.58	5.53663
1880.83	3.64147
1881.08	6.47278
1881.33	4.57227
1881.58	3.61868
1881.83	3.61009
1882.08	5.48835
1882.33	3.59153
1882.58	5.47134
1882.83	4.56439
1883.08	4.61852
1883.33	2.65716
1883.58	5.45963
1883.83	1.69643
1884.08	1.70026
1884.33	3.58343
1884.58	2.64916
1884.83	4.5433
1885.08	6.43398
1885.33	6.44056
1885.58	2.67284
1885.83	3.62169
1886.08	5.51263
1886.33	3.62074
1886.58	1.728
1886.83	5.50025
1887.08	2.66625
1887.33	5.49283
1887.58	2.65977
1887.83	3.59798
1888.08	3.59241
1888.33	0.761627
1888.58	4.5246
1888.83	6.40372
1889.08	4.52015
1889.33	2.63744
1889.58	2.63857
1889.83	5.46658
1890.08	3.58911
1890.33	3.59294
1890.58	4.53637
1890.83	4.53584
1891.08	6.41963
1891.33	2.65279
1891.58	4.536
1891.83	0.769903
1892.07	4.53593
1892.33	4.53392
1892.58	7.35404
1892.82	4.52272
1893.07	3.57332
1893.32	6.38662
1893.57	1.69116
1893.82	2.62932
1894.07	4.505
1894.32	1.68489
1894.57	0.746015
1894.82	3.56621
1895.07	7.32707
1895.32	4.51135
1895.57	4.51455
1895.82	3.57816
1896.07	4.52248
1896.32	2.64636
1896.57	5.47123
1896.82	6.41509
1897.07	3.59569
1897.32	2.65648
1897.56	7.36024
1897.81	4.53774
1898.06	2.65521
1898.31	3.59322
1898.56	3.58977
1898.81	7.34565
1899.06	3.58496
1899.31	0.76536
1899.56	4.52175
1899.81	0.763765
1900.06	5.46125
1900.31	4.52406
1900.56	6.40626
1900.81	0.773015
1901.05	2.65657
1901.31	6.4214
1901.55	3.6054
1901.8	5.49243
1902.05	2.67376
1902.3	1.73315
1902.55	4.55448
1902.8	3.61267
1903.05	7.37315
1903.3	1.73073
1903.55	2.67095
1903.8	1.73103
1904.04	3.61186
1904.29	5.4923
1904.54	3.61187
1904.79	3.61244
1905.04	3.61302
1905.29	-0.147518
1905.54	3.60561
1905.79	5.48163
1906.04	3.60161
1906.29	3.60045
1906.54	4.53886
1906.78	2.6606
1907.03	6.41893
1907.28	0.785845
1907.53	2.66858
1907.78	5.49011
1908.03	2.6735
1908.28	3.61511
1908.53	2.67857
1908.77	2.68234
1909.02	3.62694
1909.27	0.811578
1909.52	-0.123591
1909.77	6.46875
1910.02	1.7703
1910.27	3.65859
1910.52	5.54647
1910.77	2.72423
1911.01	0.842473
1911.26	4.61152
1911.51	3.67005
1911.76	3.66911
1912.01	0.843748
1912.26	2.72806
1912.51	3.67085
1912.76	2.72986
1913	1.78982
1913.25	3.67824
1913.5	3.6849
1913.75	0.862844
1914	4.63808
1914.25	2.75685
1914.5	4.64785
1914.74	3.70866
1914.99	3.71151
1915.24	1.8255
1915.49	2.76908
1915.74	3.71177
1915.99	2.76871
1916.24	2.76584
1916.49	5.59262
1916.73	2.76149
1916.98	-0.0684366
1917.23	3.70222
1917.48	4.64492
1917.73	3.70433
1917.98	2.76539
1918.23	3.71349
1918.47	4.66274
1918.72	3.72556
1918.97	4.67618
1919.22	0.907554
1919.47	2.80211
1919.71	0.915273
1919.96	4.69561
1920.21	-0.0305662
1920.46	3.753
1920.71	1.86827
1920.96	0.927478
1921.21	-0.961393
1921.45	4.71581
1921.7	1.88013
1921.95	2.82624
1922.2	2.82519
1922.45	0.932077
1922.69	2.82178
1922.94	4.71183
1923.19	4.7111
1923.44	1.87454
1923.69	2.81775
1923.94	1.87067
1924.18	3.75959
1924.43	3.76019
1924.68	1.87261
1924.93	-0.0139723
1925.18	-0.00988102
1925.42	0.940839
1925.67	2.83699
1925.92	0.950079
1926.17	1.90133
1926.42	2.85332
1926.66	5.69722
1926.91	0.966341
1927.16	0.0220671
1927.41	2.86592
1927.66	3.81581
1927.9	1.92357
1928.15	1.92556
1928.4	2.87611
1928.65	2.8791
1928.9	2.88285
1929.15	1.93969
1929.39	0.996888
1929.64	-0.895984
1929.89	2.90443
1930.14	1.95993
1930.39	2.91361
1930.63	1.01601
1930.88	-0.882177
1931.13	2.91457
1931.38	3.86225
1931.62	1.96238
1931.87	3.85882
1932.12	2.90818
1932.37	-0.888124
1932.61	1.95792
1932.86	1.00853
1933.11	3.85769
1933.36	2.91582
1933.61	-0.872745
1933.85	1.98839
1934.1	2.95449
1934.35	2.01684
1934.6	2.98113
1934.84	2.99129
1935.09	2.04565
1935.34	2.04691
1935.59	4.89713
1935.83	-0.820712
1936.08	-0.821205
1936.33	2.03594
1936.58	-1.77739
1936.83	3.93482
1937.07	0.123075
1937.32	1.07295
1937.57	-0.832814
1937.82	2.97273
1938.06	2.02352
1938.31	-0.82724
1938.56	1.0792
1938.81	0.129914
1939.05	-0.819807
1939.3	2.04063
1939.55	2.04335
1939.8	0.139681
1940.04	-0.809178
1940.29	3.01031
1940.54	-0.795207
1940.79	1.11712
1941.03	2.07104
1941.28	3.02245
1941.53	2.06194
1941.78	1.1044
1942.02	-1.74732
1942.27	0.172498
1942.52	2.08445
1942.76	0.173829
1943.01	3.98556
1943.26	-1.74478
1943.51	-1.74441
1943.75	0.17184
1944	1.12964
1944.25	-0.776213
1944.5	2.09274
1944.74	-2.67934
1944.99	3.05735
1945.24	2.10618
1945.49	0.198122
1945.73	2.11348
1945.98	1.15997
1946.23	0.205567
1946.47	-0.749834
1946.72	1.16295
1946.97	3.07476
1947.21	0.205382
1947.46	2.11823
1947.71	1.16248
1947.96	4.03117
1948.2	3.07495
1948.45	1.1647
1948.7	4.03749
1948.94	0.215174
1949.19	1.17581
1949.44	0.223096
1949.69	0.22814
1949.93	-1.68085
1950.18	3.11612
1950.43	-0.71163
1950.67	1.21218
1950.92	-0.70009
1951.17	2.18433
1951.41	3.14911
1951.66	1.23237
1951.91	3.15594
1952.15	0.276745
1952.4	1.23833
1952.65	2.20275
1952.9	2.20428
1953.14	-0.681565
1953.39	-1.64716
1953.64	0.264738
1953.88	2.17535
1954.13	0.251244
1954.38	1.20511
1954.62	-0.711762
1954.87	2.16309
1955.12	2.16646
1955.36	2.17227
1955.61	1.22235
1955.86	0.27151
1956.1	0.276216
1956.35	0.280506
1956.6	1.24408
1956.84	2.20853
1957.09	1.25159
1957.34	1.25472
1957.58	3.17919
1957.83	2.22019
1958.08	2.22177
1958.32	0.299989
1958.57	1.25983
1958.82	-0.663811
1959.06	5.10078
1959.31	1.25672
1959.56	0.2943
1959.8	0.292654
1960.05	0.290963
1960.3	-0.671142
1960.54	1.24694
1960.79	-0.674706
1961.04	1.24345
1961.28	3.16255
1961.53	1.24439
1961.78	-0.673848
1962.02	0.286983
1962.27	-0.671737
1962.51	1.24908
1962.76	-0.669692
1963.01	-0.668728
1963.25	1.25232
1963.5	0.293912
1963.75	-0.664104
1963.99	3.17826
1964.24	0.29733
1964.48	3.1779
1964.73	2.21814
1964.98	3.17858
1965.22	2.2197
1965.47	1.26199
1965.72	0.304983
1965.96	2.23022
1966.21	-0.649134
1966.46	-0.646711
1966.7	3.19942
1966.95	0.316026
1967.19	2.23962
1967.44	1.28001
1967.69	2.24223
1967.93	-1.60219
1968.18	0.320318
1968.43	-0.642108
1968.67	1.27773
1968.92	1.27414
1969.16	-0.651262
1969.41	2.22573
1969.66	1.26257
1969.9	2.21996
1970.15	-0.660569
1970.39	0.2969
1970.64	-2.58255
1970.89	-0.664756
1971.13	3.17118
1971.38	-1.62482
1971.62	2.21407
1971.87	0.297139
1972.12	0.298056
1972.36	-0.661368
1972.61	1.25599
1972.85	-1.62356
1973.1	-0.667006
1973.35	1.24866
1973.59	0.288831
1973.84	3.16383
1974.08	-2.58702
1974.33	0.289149
1974.58	2.20739
1974.82	1.25078
1975.07	0.29455
1975.31	3.17398
1975.56	-0.659823
1975.8	1.26012
1976.05	-0.65713
1976.3	1.26214
1976.54	-1.61529
1976.79	1.26222
1977.03	2.22054
1977.28	0.300888
1977.53	1.25783
1977.77	-0.661512
1978.02	0.295867
1978.26	2.21194
1978.51	0.294756
1978.75	2.21238
1979	0.296269
1979.24	0.296689
1979.49	1.25639
1979.74	0.298026
1979.98	0.296503
1980.23	3.16899
1980.47	6.04131
1980.72	1.25001
1980.96	1.24797
1981.21	3.16277
1981.45	1.24665
1981.7	3.16211
1981.95	2.20379
1982.19	0.286099
1982.44	3.15618
1982.68	1.23791
1982.93	1.23393
1983.17	-0.68159
1983.42	0.27453
1983.66	-0.682714
1983.91	2.18558
1984.16	-2.5973
1984.4	1.22704
1984.65	-0.687814
1984.89	-0.690763
1985.14	1.21107
1985.38	1.20196
1985.63	0.253119
1985.87	2.08419
1986.12	0.230347
1986.36	-1.64582
1986.61	-0.638575
1986.85	-0.510495
1987.1	2.02052
1987.35	1.13684
1987.59	2.885
1987.84	1.90214
1988.08	0.134706
1988.33	0.827668
1988.57	-0.9297
1988.82	1.80676
1989.06	0.264008
1989.31	0.879334
1989.55	0.315212
1989.8	1.19415
1990.04	0.570184
1990.29	1.65691
1990.53	-1.32732
1990.78	1.76972
1991.02	0.734179
1991.27	-0.715374
1991.51	-0.151322
1991.76	-2.39558
1992	1.54867
1992.25	-0.103554
1992.49	0.416146
1992.74	-1.89766
1992.98	-0.908612
1993.23	0.494762
1993.47	0.346618
1993.72	-1.02943
1993.96	0.827534
1994.21	-0.282784
1994.45	1.93856
1994.7	1.58869
1994.94	0.541086
1995.19	1.90555
1995.43	0.63778
1995.68	-0.000386238
1995.92	0.152617
1996.17	0.354169
1996.41	1.63381
1996.66	0.646421
1996.9	-1.13745
1997.15	0.272578
1997.39	-0.757244
1997.64	1.13249
1997.88	0.677977
1998.13	-1.65467
1998.37	-0.759834
1998.62	-0.325508
1998.86	-0.71258
1999.11	-1.15418
1999.35	1.40471
1999.6	0.608131
1999.84	-1.70121
2000.08	-0.0820589
2000.33	-0.954133
2000.57	0.175527
2000.82	1.3762
2001.06	0.635992
2001.31	-0.79558
2001.55	-1.89604
2001.8	-0.958047
2002.04	-0.809861
2002.29	0.126287
2002.53	-0.820418
2002.78	-0.627339
2003.02	-0.936743
2003.26	-0.271112
2003.51	0.614492
2003.76	-0.117702
2004	-0.810961
2004.24	-1.54779
2004.49	-0.704515
2004.73	0.133294
2004.98	-0.261884
2005.22	-0.772073
2005.47	-1.13268
2005.71	0.23908
2005.96	0.194202
2006.2	0.0586977
2006.44	0.789358
2006.69	-0.294375
2006.93	0.527412
2007.18	0.661259
2007.42	0.431659
2007.67	1.06974
2007.91	0.497354
2008.15	-0.113001
2008.4	-0.385352
2008.64	0.424311
2008.89	0.362281
2009.13	-0.882464
2009.38	-0.812179
2009.62	-1.07745
2009.86	-1.42948
2010.11	-0.522388
2010.27	0.0891905
2010.52	1.03083
2010.77	-0.852997
2011.01	-1.7949
2011.26	1.03032
2011.51	-0.853798
2011.75	2.91265
2012	0.0867605
2012.25	0.0856638
2012.5	1.02423
2012.74	0.0777359
2012.99	0.0715895
2013.24	-0.872558
2013.48	-1.81708
2013.73	1.9356
2013.98	1.92726
2014.23	0.0437775
2014.47	-1.83433
2014.72	0.0435181
2014.97	0.0457535
2015.21	0.987048
2015.46	2.86677
2015.71	0.0479088
2015.96	0.0540762
2016.2	2.88248
2016.45	0.0648355
2016.7	-0.875786
2016.94	0.0619812
2017.19	0.998259
2017.44	-1.82364
2017.69	-1.82817
2017.93	0.982264
2018.18	-0.898932
2018.43	-0.903534
2018.67	-0.908504
2018.92	0.0240946
2019.17	-0.914819
2019.41	-0.916589
2019.66	0.9561
2019.91	0.955925
2020.15	0.0187855
2020.4	0.954988
2020.65	0.0196247
2020.89	0.957207
2021.14	-0.915936
2021.39	0.0201492
2021.64	0.0189724
2021.88	0.0171032
2022.13	-1.8578
2022.38	0.0112848
2022.62	0.00751305
2022.87	-0.930602
2023.12	-1.86861
2023.36	0.934216
2023.61	-2.80836
2023.86	-0.940893
2024.1	-0.945169
2024.35	0.918683
2024.6	-0.0198097
2024.84	0.909475
2025.09	-0.960987
2025.34	-0.964288
2025.58	0.896342
2025.83	0.898893
2026.08	7.43665
2026.32	2.78224
2026.57	0.926406
2026.82	1.87423
2027.06	0.945908
2027.31	2.81414
2027.56	2.80301
2027.8	1.85075
2028.05	-0.0460777
2028.3	2.79571
2028.54	0.970905
2028.79	0.946973
2029.04	-0.916525
2029.28	2.80112
2029.53	0.915432
2029.78	0.901093
2030.02	1.83131
2030.27	1.82176
2030.52	1.83312
2030.76	2.77416
2031.01	0.906041
2031.25	1.83927
2031.5	2.7735
2031.75	1.84513
2031.99	-0.0169363
2032.24	-0.0118103
2032.49	-0.00723743
2032.73	1.86553
2032.98	0.934197
2033.23	0.00372601
2033.47	1.87467
2033.72	0.932142
2033.97	0.921123
2034.21	0.907218
2034.46	1.83824
2034.7	-0.0219641
2034.95	0.916779
2035.2	0.925778
2035.44	-0.933526
2035.69	0.943505
2035.93	0.941251
2036.18	2.80405
2036.43	0.00115299
2036.67	0.00400257
2036.92	0.00393391
2037.17	1.87326
2037.41	0.00197124
2037.66	0.00032711
2037.9	0.933092
2038.15	-1.87265
2038.4	-0.940104
2038.64	-0.94207
2038.89	-2.81231
2039.13	-1.88017
2039.38	-1.88289
2039.63	0.914008
2039.87	1.84325
2040.12	-0.0265179
2040.36	-1.89503
2040.61	0.90006
2040.86	-1.89933
2041.1	-0.0355215
2041.35	0.895828
2041.6	0.89376
2041.84	-0.039752
2042.09	0.888911
2042.33	-1.90681
2042.58	-0.0434456
2042.82	0.889857
2043.07	-0.969956
2043.32	0.90036
2043.56	0.90645
2043.81	0.908261
2044.05	-0.0255327
2044.3	0.903595
2044.55	-1.89998
2044.79	-0.979694
2045.04	-0.960052
2045.28	-0.0258255
2045.53	-0.937844
2045.77	-2.78917
2046.02	-0.932054
2046.27	-1.87787
2046.51	1.84699
2046.76	-0.951175
2047	-0.955598
2047.25	1.83052
2047.49	-0.035923
2047.74	-0.035059
2047.99	1.83024
2048.23	-0.0333109
2048.48	-0.0310478
2048.72	0.904606
2048.97	-0.957937
2049.21	-0.954133
2049.46	-2.81637
2049.71	1.85549
2049.95	-1.87627
2050.2	2.79654
2050.44	-0.00553417
2050.69	-0.00652599
2050.93	-0.943457
2051.18	-0.0132952
2051.42	-2.81435
2051.67	-0.012681
2051.92	-0.0106144
2052.16	0.924072
2052.41	-0.942203
2052.65	-0.00580215
2052.9	0.931491
2053.14	1.8704
2053.39	0.942274
2053.63	0.945017
2053.88	0.0114422
2054.12	3.75369
2054.37	-1.85933
2054.61	0.0108643
2054.86	0.00962639
2055.11	0.00656223
2055.35	-0.929853
2055.6	1.87434
2055.84	0.937985
2056.09	0.936484
2056.33	-1.86849
2056.58	0.00096035
2056.82	-0.933084
2057.07	1.87256
2057.31	0.939629
2057.56	-0.928373
2057.8	0.944318
2058.05	0.0124683
2058.29	-2.79161
2058.54	0.954409
2058.78	0.956546
2059.03	0.0213203
2059.28	0.958364
2059.52	2.83078
2059.77	0.0204706
2060.01	0.0182972
2060.26	-2.79033
2060.5	0.954969
2060.75	-3.72351
2060.99	-1.85013
2061.24	0.0228767
2061.48	0.959474
2061.73	0.0237436
2061.97	-2.78439
2062.22	1.89933
2062.46	1.90169
2062.71	0.967718
2062.95	1.90713
2063.2	-2.77634
2063.44	-0.900729
2063.69	-0.899634
2063.93	1.91358
2064.18	-1.83451
2064.42	0.0425606
2064.67	0.0460176
2064.91	-0.887975
2065.16	2.86936
2065.4	0.996005
2065.65	-2.75662
2065.89	-0.877187
2066.14	0.0622606
2066.38	0.064002
2066.63	-2.75237
2066.87	1.9454
2067.11	-0.870914
2067.36	1.01055
2067.61	-1.80684
2067.85	3.83375
2068.1	0.0749369
2068.34	-0.862871
2068.58	1.95721
2068.83	-1.80505
2069.07	-1.80866
2069.32	0.0644369
2069.56	-0.876469
2069.81	1.94268
2070.05	-0.869189
2070.3	-1.80288
2070.54	1.0253
2070.79	-0.85797
2071.03	1.95881
2071.28	0.0966959
2071.52	0.100413
2071.77	-2.72598
2072.01	2.92295
2072.25	0.0976915
2072.5	-2.72817
2072.74	-0.845068
2072.99	-1.78737
2073.23	1.97937
2073.48	-0.84484
2073.72	2.92241
2073.97	1.98263
2074.21	1.04378
2074.45	-0.836575
2074.7	0.110492
2074.94	0.116817
2075.19	-0.819427
2075.43	-0.815069
2075.68	2.96302
2075.92	1.07537
2076.17	1.07578
2076.41	1.07398
2076.66	-1.76035
2076.9	-0.819932
2077.14	-1.7686
2077.39	-2.71275
2077.63	-0.825089
2077.88	-2.70919
2078.12	0.122006
2078.37	1.06679
2078.61	1.06899
2078.85	-0.814981
2079.1	2.02377
2079.34	1.08233
2079.59	-0.804595
2079.83	0.142285
2080.08	2.9789
2080.32	-1.74613
2080.56	-0.802482
2080.81	-1.74825
2081.05	-0.803803
2081.3	-1.74892
2081.54	-2.69406
2081.78	0.141335
2082.03	0.142326
2082.27	-2.69198
2082.52	0.143177
2082.76	3.92285
2083.01	0.142171
2083.25	-0.803331
2083.49	0.141606
2083.74	0.141663
2083.98	1.08642
2084.23	1.08663
2084.47	1.08701
2084.71	1.08702
2084.96	2.03197
2085.2	1.08689
2085.45	1.08818
2085.69	0.146705
2085.93	-0.794581
2086.18	-0.791913
2086.42	2.04727
2086.67	-2.68137
2086.91	2.05182
2087.15	-0.786065
2087.4	2.05311
2087.64	-1.73229
2087.89	0.160816
2088.13	-1.73157
2088.37	0.162045
2088.62	1.1092
2088.86	-0.781842
2089.11	1.11404
2089.35	3.95966
2089.59	0.171837
2089.84	0.172488
2090.08	1.12082
2090.32	2.06962
2090.57	1.12372
2090.81	-1.7178
2091.06	2.07459
2091.3	1.1308
2091.54	-1.71
2091.79	-1.7062
2092.03	-1.70245
2092.27	-0.74897
2092.52	0.203917
2092.76	1.15714
2093	1.16089
2093.25	0.214108
2093.49	0.216838
2093.73	4.97281
2093.98	-0.730865
2094.22	1.17044
2094.47	1.16957
2094.71	3.06954
2094.95	3.06655
2095.2	0.212512
2095.44	-0.739724
2095.68	0.208768
2095.93	0.207656
2096.17	3.05692
2096.42	-1.69363
2096.66	3.05349
2096.9	-1.69798
2097.15	0.198458
2097.39	3.99459
2097.63	2.09495
2097.88	-1.70309
2098.12	0.193453
2098.36	1.14244
2098.61	-1.70542
2098.85	0.191847
2099.09	-0.757883
2099.34	1.13978
2099.58	2.08883
2099.82	2.08924
2100.07	1.1409
2100.31	0.193284
2100.55	0.196535
2100.8	-0.750593
2101.04	-2.64868
2101.28	-0.748549
2101.53	2.10072
2101.77	1.15048
2102.01	0.200554
2102.26	-0.750293
2102.5	1.14653
2102.74	1.14343
2102.99	-0.7568
2103.23	2.09043
2103.47	1.14028
2103.72	0.191223
2103.96	-0.756965
2104.2	0.194405
2104.44	0.196325
2104.69	0.198164
2104.93	0.200549
2105.17	2.10396
2105.42	0.205958
2105.66	2.10833
2105.9	0.20859
2106.15	1.15973
2106.39	2.11098
2106.63	-1.69072
2106.88	-0.73987
2107.12	-0.741562
2107.36	-1.69479
2107.6	3.05309
2107.85	0.198384
2108.09	0.194418
2108.33	2.09054
2108.58	2.08922
2108.82	-0.758632
2109.06	3.04402
2109.31	0.196884
2109.55	-0.753124
2109.79	0.196733
2110.03	3.99645
2110.28	0.196338
2110.52	1.14619
2110.76	1.14585
2111.01	0.194639
2111.25	2.09204
2111.49	0.19099
2111.73	1.13962
2111.98	-0.759799
2112.22	0.191178
2112.46	1.14222
2112.71	2.09387
2112.95	1.14761
2113.19	-1.70091
2113.43	0.20099
2113.68	3.05105
2113.92	1.14874
2114.16	0.198014
2114.4	1.14893
2114.65	0.198637
2114.89	-0.75276
2115.13	3.04703
2115.38	-1.70548
2115.62	0.193557
2115.86	2.09024
2116.1	-1.71191
2116.35	4.93456
2116.59	-0.764299
2116.83	-0.765025
2117.07	0.18506
2117.32	2.08226
2117.56	1.13017
2117.8	0.178288
2118.04	-0.774673
2118.29	0.169953
2118.53	3.96053
2118.77	0.163517
2119.01	-0.787684
2119.26	2.05306
2119.5	0.15458
2119.74	3.94265
2119.99	2.04661
2120.23	2.047
2120.47	2.99728
2120.71	-0.792664
2120.95	-1.73791
2121.2	-0.786885
2121.44	1.11277
2121.68	1.11564
2121.92	1.1182
2122.17	-1.72686
2122.41	0.172856
2122.65	1.1235
2122.89	0.17513
2123.14	-0.774047
2123.38	0.173988
2123.62	0.172153
2123.86	-0.779544
2124.1	-0.783281
2124.35	3.00483
2124.59	2.04868
2124.83	0.146529
2125.07	-1.75283
2125.32	-0.809813
2125.56	-0.813772
2125.8	-0.81734
2126.04	2.01826
2126.28	2.0147
2126.53	-2.71788
2126.77	3.89885
2127.01	2.0061
2127.25	1.05962
2127.5	2.00381
2127.74	0.111292
2127.98	1.05553
2128.22	3.89118
2128.46	0.109912
2128.71	-1.7814
2128.95	1.05285
2129.19	1.05165
2129.43	1.05074
2129.67	2.9398
2129.92	1.99359
2130.16	0.102349
2130.4	1.04552
2130.64	0.0987501
2130.88	-0.848067
2131.13	1.03842
2131.37	0.0918608
2131.61	1.03447
2131.85	1.03245
2132.09	-2.74623
2132.34	1.02634
2132.58	2.91196
2132.82	-0.862825
2133.06	2.91206
2133.3	1.02507
2133.54	1.96864
2133.79	-1.80578
2134.03	-0.861991
2134.27	1.96865
2134.51	-0.863228
2134.75	0.0798388
2135	2.9098
2135.24	-1.80996
2135.48	1.96118
2135.72	0.0697346
2135.96	0.0654783
2136.2	1.00601
2136.45	1.00661
2136.69	-0.878704
2136.93	1.00692
2137.17	1.00838
2137.41	2.89768
2137.65	1.95253
2137.9	3.83321
2138.14	1.00171
2138.38	1.00469
2138.62	2.89532
2138.86	1.01224
2139.1	1.9463
2139.35	0.05585
2139.59	4.76457
2139.83	0.0508566
2140.07	-0.893165
2140.31	0.989003
2140.55	1.92944
2140.8	0.986124
2141.04	0.986208
2141.28	2.86574
2141.52	1.92045
2141.76	1.91896
2142	0.977475
2142.24	1.92182
2142.49	0.040575
2142.73	3.82242
2142.97	1.92901
2143.21	1.88694
2143.45	-0.928691
2143.69	2.83239
2143.93	2.8383
2144.18	0.962574
2144.42	1.90584
2144.66	1.89555
2144.9	1.89753
2145.14	1.89781
2145.38	1.89654
2145.62	-0.925518
2145.87	1.89328
2146.11	1.89171
2146.35	1.89017
2146.59	2.82809
2146.83	2.82543
2147.07	2.8229
2147.31	2.82055
2147.55	1.87919
2147.79	0.937812
2148.04	1.8749
2148.28	1.87254
2148.52	1.86977
2148.76	0.927568
2149	3.73887
2149.24	4.66947
2149.48	1.8514
2149.72	-0.0282679
2149.97	5.59304
2150.21	1.84167
2150.45	0.903894
2150.69	2.77966
2150.93	1.84453
2151.17	3.72119
2151.41	2.78572
2151.65	3.72456
2151.89	5.60232
2152.14	1.84779
2152.38	0.90752
2152.62	2.77957
2152.86	0.901835
2153.1	-0.0370092
2153.34	3.71015
2153.58	2.76977
2153.82	-0.0451393
2154.06	2.75913
2154.3	-0.0563707
2154.55	1.80912
2154.78	0.86665
2155.03	2.73162
2155.27	2.72639
2155.51	5.52529
2155.75	3.65279
2155.99	3.65073
2156.23	2.71549
2156.47	1.78063
2156.71	3.64874
2156.95	-1.02133
2157.19	1.78324
2157.43	2.72036
2157.68	0.853192
2157.92	5.52706
2158.16	1.78771
2158.4	4.59065
2158.64	7.39245
2158.88	3.6515
2159.12	6.45124
2159.36	2.71024
2159.6	4.57359
2159.84	3.63502
2160.08	1.76393
2160.32	3.62714
2160.56	1.75866
2160.8	3.62369
2161.04	4.55471
2161.29	5.48563
2161.53	2.68589
2161.77	1.7526
2162.01	0.819389
2162.25	3.61749
2162.49	9.21242
2162.73	2.68018
2162.97	6.40841
2163.21	3.60849
2163.45	3.60624
2163.69	3.60381
2163.93	2.66744
2164.17	5.45833
2164.41	5.45498
2164.65	2.66053
2164.89	1.72983
2165.14	1.72968
2165.37	4.52515
2165.61	5.45687
2165.86	5.45408
2166.1	6.38336
2166.34	2.65384
2166.58	5.44413
2166.82	2.64741
2167.06	4.50507
2167.3	4.49913
2167.54	5.41987
2167.78	2.62157
2168.02	5.408
2168.26	7.26664
2168.5	6.33787
2168.74	1.69107
2168.98	6.34422
2169.22	6.34963
2169.46	5.42575
2169.7	5.43288
2169.94	5.4367
2170.18	2.64399
2170.42	5.43605
2170.66	3.56968
2170.9	3.56781
2171.14	5.42112
2171.38	4.47731
2171.62	3.5409
2171.86	3.53731
2172.1	7.25092
2172.34	3.53134
2172.58	5.3887
2172.82	6.31712
2173.06	5.3875
2173.3	3.5303
2173.54	7.24921
2173.78	5.39207
2174.02	4.46316
2174.26	4.46301
2174.5	5.3919
2174.74	5.39114
2174.98	7.24817
2175.22	3.5294
2175.46	4.45764
2175.7	4.45629
2175.94	8.17076
2176.18	5.38012
2176.42	5.37861
2176.66	5.37831
2176.9	5.37845
2177.14	4.44941
2177.38	5.37768
2177.62	3.51995
2177.86	2.58883
2178.1	4.44133
2178.34	8.15131
2178.58	3.50827
2178.82	6.29408
2179.06	4.43702
2179.3	3.50832
2179.54	4.43638
2179.78	2.57885
2180.02	4.43491
2180.26	5.36175
2180.5	9.07364
2180.74	6.28759
2180.98	5.35762
2181.22	6.28306
2181.46	8.13665
2181.7	6.27895
2181.94	6.27597
2182.18	6.27371
2182.42	4.41589
2182.66	5.33945
2182.9	4.40731
2183.14	4.40166
2183.38	4.39746
2183.62	5.32086
2183.85	9.02413
2184.09	4.39005
2184.33	7.17013
2184.57	4.39175
2184.81	7.17298
2185.05	7.17431
2185.29	8.1035
2185.53	5.32558
2185.77	6.25587
2186.01	8.11413
2186.25	4.40916
2186.49	10.9103
2186.73	4.4193
2186.97	5.35276
2187.21	6.28519
2187.45	4.42812
2187.69	4.42569
2187.93	5.35066
2188.17	6.27488
2188.41	7.19829
2188.64	4.40898
2188.88	5.33122
2189.12	3.46967
2189.36	3.46468
2189.6	2.53501
2189.84	7.16894
2190.08	6.24196
2190.32	3.46224
2190.56	5.31741
2190.8	5.3171
2191.04	4.39064
2191.28	5.3191
2191.52	4.39305
2191.76	5.32174
2192	3.4678
2192.23	4.39667
2192.47	7.18288
2192.71	9.97001
2192.95	2.54855
2193.19	5.33695
2193.43	5.3451
2193.67	8.14154
2193.91	4.43004
2194.15	5.3625
2194.39	5.36077
2194.63	4.4287
2194.86	5.35583
2195.1	5.35239
2195.34	6.27687
2195.58	5.34184
2195.82	6.26317
2196.06	5.32819
2196.3	6.2511
2196.54	5.31909
2196.78	11.8089
2197.02	7.16722
2197.26	4.38461
2197.49	6.23977
2197.73	4.38636
2197.97	6.2462
2198.21	6.25089
2198.45	8.11346
2198.69	6.26323
2198.93	7.19766
2199.17	2.55762
2199.41	7.21088
2199.64	7.22087
2199.88	8.16241
2200.12	6.31019
2200.36	6.318
2200.6	6.32348
2200.84	10.9878
2201.08	7.25004
2201.32	8.15809
2201.55	7.1812
2201.79	7.15168
2202.03	9.02278
2202.27	8.13259
2202.51	11.869
2202.75	7.21154
2202.99	9.06627
2203.23	6.29827
2203.47	3.55694
2203.7	7.26595
2203.94	6.33204
2204.18	5.40156
2204.42	7.25159
2204.66	8.16346
2204.9	6.28502
2205.14	5.34395
2205.38	7.20014
2205.61	6.27071
2205.85	5.34501
2206.09	3.48469
2206.33	9.98572
2206.57	6.26809
2206.81	9.06027
2207.05	6.27409
2207.28	8.13834
2207.52	5.35139
2207.76	9.07767
2208	7.22028
2208.24	7.22368
2208.48	7.2263
2208.71	6.29683
2208.95	8.16026
2209.19	6.29731
2209.43	7.22763
2209.67	4.43411
2209.91	9.09337
2210.15	7.2331
2210.38	6.30437
2210.62	3.51146
2210.86	6.30989
2211.1	4.44846
2211.34	5.38452
2211.57	7.25345
2211.81	4.4579
2212.05	6.32443
2212.29	4.45705
2212.53	8.18555
2212.77	5.38522
2213	6.31403
2213.24	5.37793
2213.48	3.51397
2213.72	7.24732
2213.96	6.32295
2214.2	6.33003
2214.43	4.46493
2214.67	8.20017
2214.91	4.46686
2215.15	7.26817
2215.39	4.46731
2215.63	8.20164
2215.86	5.39994
2216.1	3.53172
2216.34	5.39767
2216.58	3.52938
2216.82	7.26322
2217.05	2.59559
2217.29	4.46323
2217.53	6.33002
2217.77	6.3294
2218.01	6.3299
2218.24	6.33155
2218.48	7.26793
2218.72	3.53487
2218.96	6.34056
2219.2	5.40792
2219.44	7.27906
2219.67	4.47681
2219.91	5.41047
2220.15	5.40922
2220.39	5.40809
2220.63	7.27452
2220.86	7.2689
2221.1	7.26289
2221.34	7.25782
2221.58	8.18698
2221.81	8.18384
2222.05	5.38248
2222.29	6.31706
2222.53	8.18697
2222.77	8.18981
2223	3.52322
2223.24	10.0666
2223.48	4.4662
2223.72	5.40626
2223.95	5.41132
2224.19	5.41567
2224.43	5.41952
2224.67	7.29476
2224.91	5.42768
2225.14	7.30533
2225.38	5.43665
2225.62	7.31365
2225.86	8.25474
2226.1	4.50956
2226.33	5.45037
2226.57	6.39109
2226.81	3.58117
2227.05	5.45823
2227.28	6.39684
2227.52	6.39584
2227.76	8.26921
2228	5.45431
2228.23	4.51499
2228.47	4.51359
2228.71	7.32456
2228.95	4.51172
2229.18	6.3898
2229.42	5.45685
2229.66	7.33737
2229.9	3.58745
2230.13	8.28288
2230.37	2.65482
2230.61	9.23028
2230.85	8.29616
2231.08	6.42243
2231.32	4.54676
2231.56	5.48978
2231.8	2.67334
2232.03	8.31698
2232.27	6.44003
2232.51	7.38399
2232.75	6.4467
2232.98	9.27258
2233.22	7.39446
2233.46	5.51467
2233.7	9.28161
2233.93	5.5148
2234.17	6.45395
2234.41	7.3921
2234.65	6.4469
2234.88	6.43907
2235.12	3.61256
2235.36	7.37408
2235.59	4.55331
2235.83	2.67296
2236.07	5.49502
2236.31	5.49535
2236.54	4.55532
2236.78	9.26365
2237.02	4.56279
2237.25	3.62809
2237.49	5.51867
2237.73	5.52564
2237.97	5.53052
2238.2	4.59246
2238.44	8.36978
2238.68	5.54731
2238.92	6.49147
2239.15	4.60246
2239.39	6.48598
2239.63	10.2516
2239.86	6.47442
2240.1	4.58628
2240.34	4.59409
2240.57	4.6004
2240.81	6.48813
2241.05	6.48903
2241.28	2.71557
2241.52	3.65987
2241.76	5.54859
2242	5.55026
2242.23	8.38438
2242.47	4.60806
2242.71	4.60687
2242.94	10.2673
2243.18	4.60065
2243.42	6.4862
2243.66	5.54148
2243.89	6.48543
2244.13	8.37594
2244.37	6.49382
2244.6	5.55714
2244.84	6.50867
2245.08	6.51298
2245.31	6.51654
2245.55	9.35707
2245.79	7.46991
2246.02	6.52717
2246.26	5.58269
2246.5	4.6391
2246.73	5.58773
2246.97	8.4285
2247.21	6.53609
2247.44	5.58888
2247.68	5.58738
2247.92	4.63935
2248.15	5.58401
2248.39	5.58248
2248.63	5.5809
2248.86	5.57964
2249.1	3.68997
2249.34	7.47749
2249.57	4.63733
2249.81	4.63447
2250.05	6.52272
2250.28	8.40997
2250.52	5.56688
2250.76	4.61726
2250.99	7.45052
2251.23	3.66723
2251.47	1.7765
2251.7	3.6689
2251.94	5.56264
2252.18	7.458
2252.41	6.51819
2252.65	1.79504
2252.89	4.64192
2253.12	7.48921
2253.36	4.65082
2253.59	5.60159
2253.83	7.50099
2254.07	4.65889
2254.3	-1.03043
2254.54	5.60446
2254.78	3.70871
2255.01	2.76011
2255.25	-0.0843773
2255.49	2.76047
2255.72	2.76287
2255.96	4.66274
2256.2	6.56308
2256.43	6.56594
2256.67	6.56893
2256.91	4.67323
2257.14	6.57449
2257.38	10.3745
2257.61	4.67772
2257.85	3.72839
2258.09	6.57825
2258.32	6.57975
2258.56	4.68228
2258.79	0.884109
2259.03	2.78545
2259.27	4.68693
2259.5	3.7382
2259.74	2.78903
2259.98	8.49395
2260.21	4.6927
2260.45	2.79333
2260.68	7.55422
2260.92	6.60683
2261.16	3.7529
2261.39	4.705
2261.63	2.80287
2261.86	1.85208
2262.1	6.61302
2262.34	2.8087
2262.57	5.66874
2262.81	5.67347
2263.04	4.72621
2263.28	5.6855
2263.52	7.59988
2263.75	8.56158
2263.99	3.7975
2264.23	2.84762
2264.46	5.71551
2264.7	5.71911
2264.93	6.67727
2265.17	2.85655
2265.4	3.81199
2265.64	5.72042
2265.88	5.71554
2266.11	2.84606
2266.35	3.79592
2266.58	1.88281
2266.82	-0.0286846
2267.06	3.78484
2267.29	2.82761
2267.53	5.68443
2267.76	6.63412
2268	0.91149
2268.24	2.8185
2268.47	3.77396
2268.71	1.86949
2268.94	2.8273
2269.18	3.78598
2269.41	3.79079
2269.65	5.70656
2269.89	2.84615
2270.12	5.7155
2270.36	2.85046
2270.59	4.76537
2270.83	2.85606
2271.06	2.85769
2271.3	7.64131
2271.53	4.77527
2271.77	3.82001
2272.01	5.73323
2272.24	4.77691
2272.48	7.64773
2272.71	4.77795
2272.95	4.77843
2273.18	7.64982
2273.42	4.77943
2273.66	3.82278
2273.89	3.82307
2274.13	5.73785
2274.36	4.78117
2274.6	3.82465
2274.83	2.86773
2275.07	3.82572
2275.3	1.90977
2275.54	2.86916
2275.78	4.78832
2276.01	3.83436
2276.25	4.79605
2276.48	4.79935
2276.72	3.84433
2276.95	4.80876
2277.19	5.77467
2277.42	0.98294
2277.66	4.82963
2277.89	2.91118
2278.13	2.91189
2278.36	5.79291
2278.6	2.91033
2278.84	6.75016
2279.07	3.86521
2279.31	5.77619
2279.54	4.81031
2279.78	0.00845146
2280.01	1.92266
2280.25	2.87782
2280.48	3.83354
2280.72	4.78984
2280.95	3.82836
2281.19	4.78456
2281.42	2.869
2281.66	3.82828
2281.89	1.91278
2282.13	1.91537
2282.36	5.75531
2282.6	4.79991
2282.83	3.84505
2283.07	0.0111961
2283.3	6.74104
2283.54	3.86639
2283.77	3.87424
2284.01	1.95507
2284.24	3.88002
2284.48	3.88363
2284.71	6.7739
2284.95	0.0384464
2285.19	2.92541
2285.42	3.88334
2285.65	1.95237
2285.89	2.9131
2286.13	0.990012
2286.36	4.84015
2286.59	1.96088
2286.83	1.00363
2287.06	3.89444
2287.3	3.89588
2287.53	1.00987
2287.77	2.93491
2288	1.96853
2288.24	1.00244
2288.47	1.96206
2288.71	0.0312662
2288.94	1.94995
2289.18	0.981932
2289.41	1.93662
2289.65	13.4708
2289.88	3.85422
2290.12	2.89235
2290.35	5.77624
2290.59	3.85557
2290.82	3.85975
2291.06	1.94088
2291.29	4.83094
2291.53	1.94613
2291.76	0.985612
2292	3.87653
2292.23	2.91709
2292.47	0.0302525
2292.7	2.92269
2292.93	1.96094
2293.17	1.96213
2293.41	0.0347452
2293.64	0.996843
2293.87	0.994441
2294.11	0.0279636
2294.34	2.91473
2294.58	0.0220108
2294.81	2.90872
2295.05	1.94273
2295.28	2.90271
2295.52	3.8628
2295.75	4.82041
2295.99	0.00157452
2296.22	2.88634
2296.45	-1.92361
2296.69	-0.960238
2296.92	0.0040493
2297.16	3.85742
2297.39	0.972916
2297.63	2.90408
2297.86	1.94366
2298.09	3.87271
2298.33	6.76739
2298.56	1.95141
2298.8	0.989895
2299.03	1.95649
2299.27	2.9221
2299.5	0.991937
2299.74	4.84998
2299.97	0.0257282
2300.21	2.921
2300.44	1.95838
2300.67	0.994753
2300.91	0.030652
2301.14	-0.934269
2301.38	1.9612
2301.61	0.0295506
2301.85	0.992798
2302.08	0.991128
2302.31	0.0257092
2302.55	0.989857
2302.78	2.91852
2303.02	0.987473
2303.25	1.95219
2303.49	0.0227461
2303.72	0.0245132
2303.95	-1.90495
2304.19	1.95833
2304.42	1.96001
2304.66	2.92838
2304.89	-0.934698
2305.12	2.92991
2305.36	1.96443
2305.59	0.0331068
2305.83	2.93369
2306.06	1.96725
2306.29	1.00035
2306.53	0.99949
2306.76	-0.934741
2307	2.92922
2307.23	0.0273905
2307.46	4.85703
2307.7	0.989884
2307.93	-1.91041
2308.17	3.8856
2308.4	0.0210981
2308.64	0.0225544
2308.87	0.024291
2309.1	0.0271597
2309.34	5.8333
2309.57	-0.933946
2309.8	0.0340223
2310.04	2.93598
2310.27	1.96745
2310.51	2.93238
2310.74	-0.94052
2310.97	1.95088
2311.21	4.83747
2311.44	1.93342
2311.68	-0.00196934
2311.91	0.960456
2312.14	-0.972919
2312.38	1.91933
2312.61	-0.0113611
2312.84	0.954589
2313.08	1.92377
2313.31	0.963681
2313.55	0.00148869
2313.78	-0.961306
2314.01	-0.95797
2314.25	0.980157
2314.48	1.95191
2314.71	0.986537
2314.95	2.91633
2315.18	-0.956534
2315.41	0.00687981
2315.65	-1.93067
2315.88	-0.972003
2316.12	-0.0107822
2316.35	3.84886
2316.58	0.951042
2316.82	2.8824
2317.05	1.91699
2317.28	0.954603
2317.52	-0.00951004
2317.75	2.88248
2317.98	4.81021
2318.22	2.87595
2318.45	0.941794
2318.69	2.869
2318.92	4.79595
2319.15	2.8632
2319.39	-0.998421
2319.62	2.8606
2319.85	4.79028
2320.09	1.8946
2320.32	3.82553
2320.55	2.86233
2320.79	2.86447
2321.02	4.79808
2321.25	4.80149
2321.49	2.87406
2321.72	2.87868
2321.95	1.91582
2322.19	5.78372
2322.42	5.78215
2322.65	3.84884
2322.89	2.88266
2323.12	8.68429
2323.35	4.81736
2323.59	8.68524
2323.82	4.81575
2324.05	6.74799
2324.29	14.4758
2324.52	12.5334
2324.75	13.4892
2324.99	12.5161
2325.22	17.3383
2325.45	13.4696
2325.69	14.4285
2325.92	18.2818
2326.15	21.1685
2326.39	27.9126
2326.62	30.796
2326.85	42.3557
2327.09	53.9154
2327.32	72.2177
2327.55	104.976
2327.79	157.993
2328.02	218.718
2328.25	267.882
2328.48	246.626
2328.72	203.216
2328.95	128.023
2329.18	77.9243
2329.42	50.952
2329.65	37.4742
2329.88	26.875
2330.11	19.1658
2330.35	14.3469
2330.58	10.4931
2330.81	6.64173
2331.05	7.60727
2331.28	3.7566
2331.51	4.72383
2331.75	4.71805
2331.98	1.82392
2332.21	2.78387
2332.45	3.74368
2332.68	2.77775
2332.91	-1.07585
2333.14	1.80961
2333.38	0.844852
2333.61	1.80435
2333.84	1.80091
2334.07	1.796
2334.31	-2.05444
2334.54	-0.133087
2334.77	-0.134374
2335.01	0.825688
2335.24	0.825455
2335.47	-1.09772
2335.7	1.78621
2335.94	0.822139
2336.17	1.78194
2336.4	1.78044
2336.64	2.74052
2336.87	1.77747
2337.1	-0.146772
2337.33	1.7739
2337.57	2.73324
2337.8	-0.151959
2338.03	-0.153437
2338.26	-0.154647
2338.5	1.76743
2338.73	-1.11659
2338.96	-2.07864
2339.19	1.76493
2339.43	1.76286
2339.66	1.7601
2339.89	-1.1259
2340.12	-3.05028
2340.36	0.788292
2340.59	7.50471
2340.82	-0.182219
2341.05	1.73075
2341.29	1.72529
2341.52	1.72156
2341.75	3.63594
2341.98	2.67363
2342.22	-0.205091
2342.45	5.54492
2342.68	0.750748
2342.91	2.66731
2343.15	-3.08568
2343.38	-1.16989
2343.61	-1.17054
2343.84	-0.211848
2344.08	0.74651
2344.31	0.745296
2344.54	-0.215061
2344.77	-0.217348
2345	1.69625
2345.24	0.733222
2345.47	1.68751
2345.7	0.725987
2345.93	0.724038
2346.17	-1.19284
2346.4	0.720827
2346.63	0.718699
2346.86	-2.15554
2347.1	2.63034
2347.33	1.67248
2347.56	-0.24232
2347.79	-1.19909
2348.02	0.716532
2348.26	-0.242014
2348.49	-0.244111
2348.72	-0.24726
2348.95	-0.253957
2349.19	2.60916
2349.42	1.6437
2349.65	0.677831
2349.88	0.66623
2350.11	-0.307522
2350.35	2.51726
2350.58	-0.317938
2350.81	0.685106
2351.04	2.61544
2351.27	-1.24053
2351.51	1.60667
2351.74	-2.211
2351.97	2.56265
2352.2	-0.310237
2352.43	0.629528
2352.67	-3.19191
2352.9	1.57328
2353.13	-0.333978
2353.36	-0.337494
2353.59	-0.338215
2353.83	-0.339564
2354.06	0.615562
2354.29	1.57134
2354.52	-3.1944
2354.75	-1.2903
2354.99	1.56592
2355.22	0.610929
2355.45	1.5609
2355.68	2.50971
2355.91	-1.30474
2356.15	0.591461
2356.38	-2.26889
2356.61	0.581004
2356.84	0.577597
2357.07	-0.376471
2357.3	-1.33003
2357.54	-0.382205
2357.77	-0.384603
2358	0.563879
2358.23	-0.390372
2358.46	-3.24273
2358.69	0.555435
2358.93	-0.396164
2359.16	-1.34849
2359.39	-0.401912
2359.62	-0.405787
2359.85	-1.3591
