#Acq. time (s)=	60
#Accumulations=	2
#Range (cm-¹)=	1200...2365
#Windows=	3
#Auto scanning=	Off
#Autofocus=	Off
#Macrospot=	Off
#AutoExposure=	Off
#Spike filter=	Multiple accum.
#Delay time (s)=	2
#Binning=	1
#Readout mode=	Signal
#DeNoise=	Off
#ICS correction=	On
#Dark correction=	Off
#Inst. Process=	Off
#Detector Gain=	Best Dynamic
#Detector ADC=	50 kHz EM
#Detector EM gain=	150
#Detector temperature (°C)=	-60.09
#Instrument=	LabRAM HR Evol
#Detector=	SIN-EM FIVIS
#Objective=	x100_VIS_LWD
#Grating=	1800 (450-850nm)
#ND Filter=	100%
#Laser=	532nm_Edge
#Hole=	30.0125
#Temperature=	40
#Range=	Visible
#StageXY=	75x50mm Scan+
#StageZ=	Z motor
#X (µm)=	0
#Y (µm)=	0
#Z (µm)=	63.6
#Full time(mm:ss)=	6:19
#Project=	21_08_11
#Sample=	BU20
#Site=	
#Title=	BU20-J-FF1-FI01-V_1800 (450-850nm)_532nm_Edge_100%_x100_VIS_LWD_H30um_60sX2
#Remark=	
#Date=	13.08.2021 15:05
#Acquired=	13.08.2021 15:05:04
#Data Range:Extract=	16.12.2021 15:36:30
#Base:Fit=	16.12.2021 15:36:40
#Base:Fit=	16.12.2021 15:55:45
#Base:Sub=	16.12.2021 15:55:46
1202.73	-3.02933
1203.01	4.36411
1203.29	14.8059
1203.56	17.9971
1203.84	-0.402588
1204.12	-6.6864
1204.4	0.830139
1204.68	-2.4733
1204.95	8.13983
1205.23	2.64261
1205.51	-1.80475
1205.79	6.63416
1206.06	3.27072
1206.34	6.33908
1206.62	-0.222565
1206.9	8.25952
1207.18	17.8416
1207.45	4.94635
1207.73	8.12793
1208.01	1.64264
1208.29	-6.99472
1208.56	0.429077
1208.84	7.87488
1209.12	-4.9465
1209.4	-10.2793
1209.67	-9.23138
1209.95	-2.90237
1210.23	18.3365
1210.51	-15.9393
1210.79	7.45218
1211.06	13.7585
1211.34	-18.3434
1211.62	9.27103
1211.9	13.4442
1212.17	10.1726
1212.45	3.7009
1212.73	1.51224
1213	-8.09628
1213.28	8.90668
1213.56	7.85315
1213.84	-9.12988
1214.12	-0.568695
1214.39	-11.1794
1214.67	13.3326
1214.95	2.70425
1215.22	4.84695
1215.5	-12.2177
1215.78	-6.97644
1216.06	1.41632
1216.34	-0.834808
1216.61	-0.927795
1216.89	-4.18909
1217.17	-2.14038
1217.44	-18.1275
1217.72	-4.37137
1218	1.94653
1218.28	0.861603
1218.55	1.92984
1218.83	-4.43506
1219.11	-4.43243
1219.38	-21.444
1219.66	17.8051
1219.94	16.7881
1220.22	-4.40701
1220.49	0.912598
1220.77	-12.906
1221.05	-11.8633
1221.32	-2.375
1221.6	-7.77029
1221.88	2.69739
1222.16	-0.628113
1222.43	3.44632
1222.71	14.9556
1222.99	-6.34543
1223.26	-0.0844421
1223.54	-2.3096
1223.82	13.4559
1224.1	12.3643
1224.37	2.82523
1224.65	-9.83005
1224.93	3.93997
1225.2	19.8755
1225.48	11.5078
1225.76	18.951
1226.03	16.8451
1226.31	31.6097
1226.59	18.904
1226.86	29.3533
1227.14	22.7534
1227.42	22.4773
1227.69	10.7008
1227.97	13.5914
1228.25	8.03937
1228.53	17.3872
1228.8	34.7939
1229.08	22.0743
1229.36	27.5285
1229.63	39.8265
1229.91	33.288
1230.19	49.1009
1230.46	45.8789
1230.74	48.4174
1231.02	48.1861
1231.29	64.0094
1231.57	76.6469
1231.84	49.3213
1232.12	61.9422
1232.4	90.3283
1232.67	66.1614
1232.95	66.172
1233.23	67.2697
1233.5	75.7463
1233.78	92.6349
1234.06	73.8161
1234.33	61.3215
1234.61	61.4042
1234.89	69.8863
1235.16	50.0023
1235.44	43.7776
1235.72	34.3662
1235.99	63.8034
1236.27	28.0363
1236.55	56.3834
1236.82	52.086
1237.1	46.7202
1237.38	55.006
1237.65	37.0486
1237.93	36.932
1238.2	21.0991
1238.48	36.7872
1238.76	33.6173
1239.03	24.1708
1239.31	19.9823
1239.59	4.27957
1239.86	10.5988
1240.14	17.9799
1240.41	33.7581
1240.69	12.8552
1240.97	17.0857
1241.24	20.1913
1241.52	35.8856
1241.8	31.7111
1242.07	32.8333
1242.35	21.3629
1242.62	33.0187
1242.9	23.6352
1243.18	27.8487
1243.45	38.3948
1243.73	31.1147
1244.01	7.01416
1244.28	45.8089
1244.56	33.2077
1244.83	44.6625
1245.11	37.2541
1245.39	50.7456
1245.66	30.7925
1245.94	24.5217
1246.21	8.8378
1246.49	39.2404
1246.77	36.1128
1247.04	45.5425
1247.32	49.7518
1247.59	48.6414
1247.87	37.0298
1248.14	49.5843
1248.42	82.0483
1248.7	85.2624
1248.97	66.4778
1249.25	72.7603
1249.52	63.3843
1249.8	88.4839
1250.08	60.1735
1250.35	71.6049
1250.63	59.011
1250.9	73.598
1251.18	67.2919
1251.45	64.1189
1251.73	84.9631
1252.01	72.3874
1252.28	71.2933
1252.56	74.374
1252.83	84.7855
1253.11	50.3701
1253.38	68.189
1253.66	51.6065
1253.93	44.4236
1254.21	44.5229
1254.49	66.5051
1254.76	35.2376
1255.04	58.2642
1255.31	53.0687
1255.59	41.6236
1255.86	40.6444
1256.14	44.9129
1256.41	70.059
1256.69	52.3382
1256.97	54.4182
1257.24	40.8348
1257.52	60.681
1257.79	45.0234
1258.07	30.4112
1258.34	81.5094
1258.62	67.928
1258.89	70.0917
1259.17	56.5884
1259.45	45.3389
1259.72	45.3459
1260	30.6795
1260.27	45.1888
1260.55	41.9773
1260.82	20.0298
1261.1	61.743
1261.37	57.8904
1261.65	66.747
1261.92	53.9115
1262.2	60.6737
1262.47	111.312
1262.75	78.4357
1263.02	115.374
1263.3	125.214
1263.58	173.681
1263.85	248.704
1264.12	212.773
1264.4	251.251
1264.68	224.082
1264.95	193.846
1265.23	145.662
1265.5	90.3031
1265.77	98.7216
1266.05	69.5531
1266.33	75.9382
1266.6	57.2551
1266.88	70.9989
1267.15	53.3838
1267.43	59.8305
1267.7	39.0964
1267.98	69.7076
1268.25	52.0389
1268.53	53.1979
1268.8	30.251
1269.08	48.1283
1269.35	38.6592
1269.63	52.2058
1269.9	69.9303
1270.17	46.8479
1270.45	50.9838
1270.73	40.5121
1271	47.8406
1271.27	59.3734
1271.55	60.5355
1271.82	62.7839
1272.1	51.4515
1272.37	63.153
1272.65	66.4456
1272.92	67.6513
1273.2	43.6967
1273.47	57.4778
1273.75	68.098
1274.02	71.3282
1274.3	33.606
1274.57	43.0796
1274.85	44.1953
1275.12	50.5897
1275.4	55.9491
1275.67	56.08
1275.95	55.1599
1276.22	43.7312
1276.49	57.4905
1276.77	57.6181
1277.04	60.9149
1277.32	62.1114
1277.59	73.8077
1277.87	69.7257
1278.14	65.673
1278.42	64.7524
1278.69	64.8719
1278.97	67.0287
1279.24	62.8329
1279.51	103.846
1279.79	65.9879
1280.06	72.357
1280.34	93.4663
1280.61	97.802
1280.89	131.665
1281.16	111.818
1281.44	137.126
1281.71	182.453
1281.98	209.954
1282.26	262.604
1282.53	384.545
1282.81	515.383
1283.08	694.584
1283.36	1018.29
1283.63	1569.5
1283.9	2255.41
1284.18	2962.86
1284.45	3534.71
1284.73	3297.21
1285	2271.05
1285.28	1215.84
1285.55	772.909
1285.82	434.009
1286.1	338.031
1286.37	240.136
1286.65	201.206
1286.92	164.338
1287.19	139.02
1287.47	141.087
1287.74	124.27
1288.02	101.173
1288.29	110.701
1288.56	81.3316
1288.84	65.6639
1289.11	57.3589
1289.39	45.9005
1289.66	41.818
1289.93	50.3319
1290.21	45.0539
1290.48	35.5828
1290.76	45.0942
1291.03	43.0271
1291.3	51.487
1291.58	36.7673
1291.85	36.8342
1292.13	50.5841
1292.4	32.6685
1292.67	43.2393
1292.95	49.6696
1293.22	39.3632
1293.49	35.3469
1293.77	41.8573
1294.04	26.0615
1294.32	27.1614
1294.59	53.5563
1294.86	33.7111
1295.14	48.7254
1295.41	22.6303
1295.68	40.8833
1295.96	35.7252
1296.23	24.1543
1296.51	25.2418
1296.78	38.9593
1297.05	17.7931
1297.33	26.2031
1297.6	38.8232
1297.87	47.2735
1298.15	28.3427
1298.42	30.4337
1298.69	31.4718
1298.97	30.4015
1299.24	36.7408
1299.52	22.0437
1299.79	3.14151
1300.06	9.54031
1300.34	9.57813
1300.61	25.4406
1300.88	30.766
1301.16	32.9666
1301.43	28.8527
1301.7	38.4483
1301.98	4.7106
1302.25	19.5437
1302.52	23.7954
1302.8	37.5337
1303.07	12.172
1303.34	1.61749
1303.62	24.8904
1303.89	22.826
1304.16	22.8671
1304.44	23.937
1304.71	19.698
1304.98	33.3836
1305.26	30.1719
1305.53	25.9009
1305.8	18.4745
1306.08	35.3403
1306.35	16.3836
1306.62	32.2686
1306.9	8.0752
1307.17	6.00961
1307.44	20.8124
1307.72	6.10666
1307.99	10.3569
1308.26	16.73
1308.54	23.1502
1308.81	22.1943
1309.08	4.35712
1309.35	30.8302
1309.63	25.6042
1309.9	47.7839
1310.17	18.2695
1310.45	10.9369
1310.72	16.2767
1310.99	30.058
1311.27	24.8435
1311.54	21.7787
1311.81	39.8364
1312.09	16.6903
1312.36	20.971
1312.63	8.28607
1312.9	14.6285
1313.18	5.15302
1313.45	13.6072
1313.72	15.7486
1314	10.5272
1314.27	2.15643
1314.54	12.8
1314.81	-1.89291
1315.09	22.4843
1315.36	24.6917
1315.63	21.5822
1315.91	19.4892
1316.18	15.2884
1316.45	31.1602
1316.72	14.3015
1317	30.2161
1317.27	17.6331
1317.54	14.537
1317.81	10.3738
1318.09	25.2194
1318.36	12.5901
1318.63	30.5879
1318.91	4.20721
1319.18	15.8567
1319.45	20.1349
1319.72	21.249
1320	21.2834
1320.27	11.7796
1320.54	14.9209
1320.81	23.3142
1321.09	23.2388
1321.36	10.5318
1321.63	37.9126
1321.9	-3.25876
1322.18	15.7197
1322.45	25.2025
1322.72	17.7866
1322.99	14.6721
1323.27	26.3409
1323.54	20.0705
1323.81	16.9423
1324.08	29.6437
1324.36	23.3467
1324.63	16.0385
1324.9	21.3058
1325.17	13.8255
1325.45	28.432
1325.72	14.5016
1325.99	20.6948
1326.26	2.77927
1326.54	18.6517
1326.81	21.0481
1327.08	30.7353
1327.35	-0.694641
1327.62	18.4561
1327.9	27.0887
1328.17	7.22763
1328.44	11.5871
1328.71	9.45148
1328.99	5.3183
1329.26	15.9094
1329.53	26.4794
1329.8	23.3174
1330.07	14.8619
1330.35	23.2621
1330.62	7.38867
1330.89	30.495
1331.16	9.29254
1331.43	21.8246
1331.71	5.97275
1331.98	21.6971
1332.25	22.6691
1332.52	16.2616
1332.8	8.82077
1333.07	19.2567
1333.34	28.6486
1333.61	12.8256
1333.88	20.1211
1334.15	8.51929
1334.43	25.2733
1334.7	28.3915
1334.97	22.0646
1335.24	10.5008
1335.51	2.09128
1335.78	9.41788
1336.06	3.11996
1336.33	19.8911
1336.6	19.8969
1336.87	17.811
1337.14	15.7254
1337.42	13.6134
1337.69	18.7822
1337.96	18.7662
1338.23	16.6611
1338.5	16.6438
1338.78	7.24487
1339.05	21.9494
1339.32	5.26282
1339.59	27.3124
1339.86	10.6075
1340.13	1.24344
1340.41	10.7151
1340.68	29.594
1340.95	9.71964
1341.22	46.3773
1341.49	26.4734
1341.76	13.8831
1342.03	16.9758
1342.31	26.3333
1342.58	20.022
1342.85	25.2617
1343.12	16.9185
1343.39	4.4061
1343.66	6.54376
1343.94	16.0056
1344.21	12.8951
1344.48	24.3908
1344.75	11.8134
1345.02	26.3885
1345.29	6.46689
1345.57	25.2093
1345.84	10.4717
1346.11	20.7975
1346.38	10.2966
1346.65	3.96924
1346.92	7.03491
1347.19	2.82596
1347.46	11.1553
1347.74	24.7105
1348.01	15.3449
1348.28	28.8925
1348.55	9.07266
1348.82	13.2133
1349.09	6.93793
1349.36	16.2877
1349.64	17.3062
1349.91	11.037
1350.18	-2.52863
1350.45	21.3576
1350.72	23.4059
1350.99	18.1668
1351.26	33.7514
1351.53	10.9018
1351.8	26.5659
1352.08	16.2752
1352.35	15.382
1352.62	19.6578
1352.89	24.0797
1353.16	14.0817
1353.43	21.3485
1353.7	26.1005
1353.97	4.8671
1354.24	4.80222
1354.52	33.9886
1354.79	11.1055
1355.06	38.0013
1355.33	23.5708
1355.6	33.1389
1355.87	15.4009
1356.14	30.9869
1356.41	24.7642
1356.68	22.6985
1356.95	34.1214
1357.22	18.5339
1357.5	37.2018
1357.77	9.15161
1358.04	7.05478
1358.31	14.2998
1358.58	20.4855
1358.85	39.1391
1359.12	26.6878
1359.39	43.258
1359.66	18.2959
1359.93	33.7815
1360.2	29.5837
1360.48	11.9731
1360.75	27.5406
1361.02	27.5803
1361.29	16.2086
1361.56	17.2589
1361.83	14.1471
1362.1	34.8663
1362.37	34.8807
1362.64	41.1455
1362.91	42.2739
1363.18	52.7439
1363.45	27.9717
1363.72	25.9729
1363.99	23.9205
1364.26	37.3976
1364.53	49.8123
1364.81	37.3476
1365.08	51.7926
1365.35	52.7768
1365.62	40.3139
1365.89	46.4741
1366.16	37.1053
1366.43	48.3964
1366.7	33.8652
1366.97	23.5342
1367.24	38.0523
1367.51	56.7522
1367.78	38.2146
1368.05	48.6205
1368.32	71.433
1368.59	63.2367
1368.86	65.3813
1369.13	112.974
1369.4	151.209
1369.67	204.949
1369.94	120.14
1370.21	67.3925
1370.48	61.174
1370.75	42.5278
1371.03	42.4486
1371.3	26.8637
1371.56	51.5238
1371.83	41.1067
1372.11	74.0282
1372.38	42.0244
1372.65	68.8098
1372.92	54.3711
1373.19	80.1322
1373.46	76.0147
1373.73	50.2675
1374	66.7689
1374.27	64.7227
1374.54	66.7811
1374.81	96.6848
1375.08	86.4707
1375.35	91.6795
1375.62	87.6201
1375.89	91.7256
1376.16	89.6016
1376.43	57.6008
1376.7	83.2013
1376.97	85.2687
1377.24	102.897
1377.51	94.8586
1377.78	108.494
1378.05	123.229
1378.32	108.992
1378.59	123.49
1378.86	133.796
1379.13	143.052
1379.4	158.472
1379.67	163.517
1379.94	149.795
1380.21	186.605
1380.48	167.863
1380.75	192.632
1381.02	186.451
1381.28	184.226
1381.56	172.7
1381.83	194.074
1382.1	184.679
1382.37	197.846
1382.63	161.823
1382.9	188.368
1383.17	174.976
1383.44	196.445
1383.71	230.318
1383.98	230.39
1384.25	261.289
1384.52	241.967
1384.79	274.07
1385.06	344.078
1385.33	379.228
1385.6	396.799
1385.87	478.15
1386.14	647.779
1386.41	821.469
1386.68	1267.14
1386.95	2066.87
1387.22	3472.6
1387.49	4813.67
1387.76	6358.36
1388.03	6261.29
1388.3	3453.52
1388.57	1660.14
1388.84	988.59
1389.11	686.107
1389.37	454.958
1389.64	358.071
1389.91	296.919
1390.18	270.574
1390.45	253.845
1390.72	208.699
1390.99	217.963
1391.26	179.984
1391.53	136.865
1391.8	169.56
1392.07	165.412
1392.34	120.334
1392.61	128.509
1392.88	89.6086
1393.14	85.5167
1393.41	98.8283
1393.68	102.932
1393.95	111.134
1394.22	76.3643
1394.49	93.8081
1394.76	88.8208
1395.03	79.7129
1395.3	85.9376
1395.57	84.9573
1395.84	68.5962
1396.11	72.6903
1396.37	92.1243
1396.64	77.779
1396.91	75.6909
1397.18	71.5866
1397.45	69.5663
1397.72	54.2828
1397.99	57.4353
1398.26	53.4265
1398.53	56.5642
1398.8	64.8408
1399.06	69.0378
1399.33	69.1243
1399.6	90.6785
1399.87	74.3767
1400.14	47.8895
1400.41	35.7169
1400.68	53.1815
1400.95	55.2943
1401.22	67.6485
1401.49	63.6744
1401.75	51.6134
1402.02	57.0233
1402.29	49.0699
1402.56	65.6827
1402.83	46.3161
1403.1	42.2836
1403.37	58.7101
1403.64	49.3425
1403.9	64.7248
1404.17	40.1495
1404.44	44.2572
1404.71	65.7821
1404.98	52.4195
1405.25	66.7473
1405.52	65.6967
1405.79	63.639
1406.05	45.1946
1406.32	82.1376
1406.59	96.5589
1406.86	83.3146
1407.13	120.296
1407.4	135.748
1407.67	123.518
1407.93	177.934
1408.2	243.643
1408.47	321.681
1408.74	415.117
1409.01	475.744
1409.28	457.379
1409.55	366.163
1409.81	305.602
1410.08	199.866
1410.35	154.635
1410.62	93.0545
1410.89	106.336
1411.16	63.2804
1411.43	62.2635
1411.69	57.2158
1411.96	56.3234
1412.23	51.4011
1412.5	45.7305
1412.77	55.4161
1413.03	29.7146
1413.3	35.3239
1413.57	40.4021
1413.84	41.6892
1414.11	30.71
1414.38	31.7835
1414.64	17.4656
1414.91	37.0209
1415.18	32.9623
1415.45	21.7401
1415.72	36.1932
1415.99	30.114
1416.25	27.1146
1416.52	23.095
1416.79	22.156
1417.06	24.3015
1417.33	22.321
1417.6	33.6793
1417.86	22.4268
1418.13	29.6972
1418.4	14.3207
1418.67	29.8073
1418.93	24.6908
1419.2	21.5927
1419.47	29.7785
1419.74	21.5387
1420.01	39.9987
1420.28	19.4242
1420.54	15.288
1420.81	26.5679
1421.08	16.3483
1421.35	28.7629
1421.62	17.6706
1421.88	49.6408
1422.15	19.0471
1422.42	18.2902
1422.69	13.5962
1422.95	31.2347
1423.22	34.504
1423.49	18.6206
1423.76	13.2027
1424.03	10.9028
1424.29	27.6521
1424.56	27.6333
1424.83	10.7449
1425.1	35.026
1425.36	39.4541
1425.63	27.1598
1425.9	32.2992
1426.17	14.8112
1426.44	31.1682
1426.7	17.7797
1426.97	30.0036
1427.24	29.8821
1427.51	14.493
1427.77	21.6669
1428.04	3.27759
1428.31	12.554
1428.58	24.9136
1428.85	24.9957
1429.11	24.067
1429.38	10.863
1429.65	19.1936
1429.91	15.232
1430.18	21.5078
1430.45	13.4917
1430.72	14.7158
1430.99	7.66266
1431.25	23.1303
1431.52	25.191
1431.79	12.8349
1432.05	0.497864
1432.32	2.52927
1432.59	17.8227
1432.86	11.5762
1433.13	15.569
1433.39	6.28201
1433.66	23.6805
1433.93	5.34805
1434.19	10.6778
1434.46	-1.55545
1434.73	21.0413
1435	2.63687
1435.26	18.0395
1435.53	17.0394
1435.8	-0.357422
1436.07	-0.340088
1436.33	16.0618
1436.6	4.8063
1436.87	-10.5328
1437.13	15.0973
1437.4	12.0364
1437.67	1.84262
1437.94	15.2423
1438.2	-2.08362
1438.47	3.10263
1438.74	-5.03406
1439.01	15.5411
1439.27	21.8053
1439.54	0.416534
1439.81	6.67966
1440.07	12.9072
1440.34	12.9644
1440.61	19.1758
1440.88	12.0356
1441.14	-1.29477
1441.41	8.96011
1441.68	6.98508
1441.94	-0.114899
1442.21	9.20593
1442.48	3.09967
1442.74	15.3966
1443.01	0.0067749
1443.28	2.06107
1443.55	4.13361
1443.81	0.082489
1444.08	2.2464
1444.35	-1.7229
1444.61	18.9459
1444.88	6.70285
1445.15	8.76764
1445.41	3.65219
1445.68	14.9507
1445.95	-3.4949
1446.21	4.72833
1446.48	9.87402
1446.75	16.0395
1447.01	-6.51575
1447.28	-0.358795
1447.55	0.691864
1447.81	-8.45547
1448.08	8.07153
1448.35	6.10727
1448.61	1.02985
1448.88	13.3621
1449.15	7.21402
1449.41	-5.09836
1449.68	16.4163
1449.95	2.07007
1450.21	20.5369
1450.48	-3.02075
1450.75	1.09552
1451.01	-1.96744
1451.28	3.16586
1451.55	5.22949
1451.81	2.17871
1452.08	6.3194
1452.35	9.44617
1452.61	12.5978
1452.88	-0.640259
1453.15	-5.70364
1453.41	14.8192
1453.68	2.54144
1453.95	2.58002
1454.21	3.65048
1454.48	-1.4321
1454.75	-6.53363
1455.01	-0.357605
1455.28	16.1351
1455.54	-0.171967
1455.81	13.2079
1456.08	-6.23669
1456.34	6.05585
1456.61	5.00974
1456.88	7.07031
1457.14	0.944
1457.41	6.08865
1457.68	-5.13669
1457.94	-8.16342
1458.21	6.23965
1458.47	3.22934
1458.74	6.35712
1459	18.7114
1459.27	10.5517
1459.54	3.40289
1459.8	-0.674744
1460.07	6.51379
1460.34	-5.76639
1460.6	1.40323
1460.87	-6.78885
1461.14	-0.645752
1461.4	-9.87094
1461.67	3.42212
1461.93	8.5155
1462.2	0.301147
1462.46	1.29126
1462.73	-4.88184
1463	1.21512
1463.26	-0.842896
1463.53	-2.79449
1463.8	-5.64203
1464.06	-16.735
1464.33	4.9198
1464.59	0.0296021
1464.86	7.43082
1465.12	-4.10977
1465.39	4.9465
1465.66	-8.13925
1465.92	-0.900665
1466.19	9.20999
1466.45	0.942413
1466.72	0.0385742
1466.99	1.08377
1467.25	14.3628
1467.52	6.22293
1467.78	0.138184
1468.05	4.25589
1468.32	-0.813232
1468.58	-1.81949
1468.85	-1.81543
1469.11	10.4158
1469.38	-5.93704
1469.64	3.20633
1469.91	6.25415
1470.18	21.5402
1470.44	-9.01987
1470.71	5.26459
1470.97	6.25433
1471.24	-8.01898
1471.5	-14.1179
1471.77	6.27542
1472.03	-3.87488
1472.3	1.24988
1472.57	-6.86832
1472.83	-10.9364
1473.1	4.32031
1473.36	16.532
1473.63	5.34488
1473.9	-1.74725
1474.16	2.38092
1474.43	6.53122
1474.69	-0.543213
1474.96	8.65668
1475.22	-5.57202
1475.49	-3.53406
1475.75	4.6055
1476.02	1.569
1476.28	-9.61929
1476.55	7.65497
1476.81	-6.58392
1477.08	-2.48883
1477.35	-9.57449
1477.61	2.65079
1477.88	-6.51559
1478.14	9.73343
1478.41	-17.7173
1478.67	20.891
1478.94	-3.51682
1479.2	-3.54251
1479.47	-5.6026
1479.73	4.49634
1480	-1.66107
1480.26	-2.71231
1480.53	-3.73035
1480.79	13.514
1481.06	8.47568
1481.33	1.46057
1481.59	-8.58768
1481.86	-17.6172
1482.12	1.76974
1482.39	-8.31961
1482.65	11.0362
1482.91	0.954254
1483.18	-4.07132
1483.45	2.05743
1483.71	-4.07559
1483.98	1.89362
1484.24	1.64825
1484.51	7.3465
1484.77	2.04694
1485.04	5.88995
1485.3	-2.79407
1485.57	1.65881
1485.83	-4.25186
1486.1	3.71521
1486.36	4.73883
1486.63	-1.19528
1486.89	-8.28848
1487.16	16.9928
1487.42	-13.4105
1487.69	-2.27838
1487.95	1.74768
1488.22	2.72214
1488.48	-2.36755
1488.75	-2.37259
1489.01	0.672424
1489.28	-4.37115
1489.54	3.75369
1489.81	-1.26498
1490.07	0.773438
1490.33	0.757538
1490.6	-1.29214
1490.86	13.8706
1491.13	-1.27603
1491.39	-8.31955
1491.66	3.86542
1491.92	-0.139374
1492.19	12.0175
1492.45	7.99945
1492.72	10.0609
1492.98	-2.04611
1493.25	-1.01196
1493.51	-14.1147
1493.78	4.13617
1494.04	-4.89032
1494.3	2.23096
1494.57	-5.85086
1494.83	-15.9951
1495.1	-2.93048
1495.36	6.09348
1495.63	-8.07666
1495.89	7.05807
1496.16	-3.03674
1496.42	8.05594
1496.68	-7.05856
1496.95	-6.00824
1497.21	6.12738
1497.48	2.11847
1497.74	-8.94284
1498.01	2.2045
1498.27	6.29208
1498.54	1.29901
1498.8	-1.67004
1499.07	5.46347
1499.33	-5.569
1499.59	3.57632
1499.86	1.60117
1500.12	-8.46426
1500.39	-8.43127
1500.65	-4.37115
1500.91	2.66699
1501.18	-6.40878
1501.44	8.75726
1501.71	4.75037
1501.97	1.74554
1502.24	-8.362
1502.5	5.72186
1502.77	17.833
1503.03	-7.40881
1503.29	-6.3847
1503.56	-0.264618
1503.82	0.804901
1504.09	-0.154541
1504.35	7.94632
1504.61	-11.2001
1504.88	6.94714
1505.14	-0.132141
1505.41	-4.27005
1505.67	-4.27194
1505.93	-9.27966
1506.2	11.9039
1506.46	-3.10672
1506.73	-10.106
1506.99	13.1291
1507.25	4.10709
1507.52	-3.93164
1507.78	-11.9801
1508.05	-4.88708
1508.31	-4.83362
1508.57	0.253296
1508.84	11.3765
1509.1	6.36847
1509.37	6.42105
1509.63	7.54248
1509.89	3.4895
1510.16	-2.57364
1510.42	7.46591
1510.68	2.38864
1510.95	11.3795
1511.21	-3.84607
1511.48	11.099
1511.74	-5.1058
1512	4.81152
1512.27	2.74933
1512.53	0.701447
1512.8	1.67444
1513.06	2.66476
1513.32	2.71509
1513.59	-4.10971
1513.85	6.05084
1514.11	8.07263
1514.38	9.06155
1514.64	-1.0434
1514.91	2.93948
1515.17	7.89755
1515.43	10.8436
1515.7	-4.25742
1515.96	-5.25748
1516.22	-1.2326
1516.49	-5.22961
1516.75	0.810425
1517.01	0.850159
1517.28	5.91763
1517.54	-8.03296
1517.8	-5.95135
1518.07	-0.877014
1518.33	-1.81958
1518.6	1.25403
1518.86	3.32721
1519.12	3.3873
1519.39	7.44266
1519.65	-7.5874
1519.91	3.46088
1520.18	14.5361
1520.44	5.57452
1520.7	10.6624
1520.97	-5.33261
1521.23	9.75455
1521.49	5.75714
1521.75	-8.28293
1522.02	-1.25916
1522.28	-1.25613
1522.54	-2.26538
1522.81	-3.30832
1523.07	0.623871
1523.33	-6.4556
1523.6	0.520386
1523.86	7.508
1524.13	-8.53027
1524.39	0.52182
1524.65	-6.42496
1524.91	-1.36514
1525.18	-0.291931
1525.44	-3.20233
1525.7	-6.09293
1525.97	6.04669
1526.23	-7.90289
1526.49	2.16635
1526.76	6.18292
1527.02	7.1922
1527.28	4.19919
1527.55	6.21494
1527.81	8.22275
1528.07	3.21475
1528.33	9.23157
1528.6	3.23782
1528.86	22.298
1529.12	0.286255
1529.39	-1.71967
1529.65	5.29828
1529.91	9.35468
1530.18	-2.57178
1530.44	4.54654
1530.7	14.6635
1530.96	12.7243
1531.23	-4.28391
1531.49	6.77704
1531.75	-4.23376
1532.02	2.82428
1532.28	-2.07956
1532.54	10.0943
1532.81	-4.79492
1533.07	4.33667
1533.33	-7.62637
1533.59	8.47095
1533.86	16.5219
1534.12	17.5401
1534.38	9.52139
1534.64	-3.508
1534.91	-3.51208
1535.17	-8.61496
1535.43	2.32419
1535.69	6.28983
1535.96	-6.79083
1536.22	19.1595
1536.48	-2.94284
1536.74	2.03577
1537.01	8.00235
1537.27	-9.98193
1537.53	-1.98022
1537.8	-15.036
1538.06	5.9429
1538.32	5.93781
1538.58	-6.97891
1538.85	-3.79584
1539.11	1.47269
1539.37	7.71078
1539.63	-6.12833
1539.9	-7.95181
1540.16	2.21869
1540.42	4.3385
1540.68	3.27652
1540.95	7.27939
1541.21	1.23572
1541.47	10.2077
1541.73	4.15106
1542	1.10135
1542.26	13.0763
1542.52	5.02948
1542.78	-1.01398
1543.05	18.9408
1543.31	-0.158569
1543.57	-7.14297
1543.83	-1.09283
1544.09	-8.00922
1544.36	2.12805
1544.62	2.23416
1544.88	7.39993
1545.14	16.544
1545.4	8.62033
1545.67	8.70807
1545.93	3.72772
1546.19	11.781
1546.45	-0.170288
1546.72	12.9274
1546.98	12.0141
1547.24	13.0378
1547.5	8.88367
1547.76	6.88
1548.03	-1.11691
1548.29	3.078
1548.55	2.93384
1548.81	-2.40057
1549.08	-1.54788
1549.34	4.58572
1549.6	-7.12714
1549.86	-1.59619
1550.12	-2.20981
1550.39	14.3686
1550.65	1.18936
1550.91	12.2598
1551.17	4.24811
1551.43	7.14417
1551.7	3.24362
1551.96	4.46921
1552.22	8.5155
1552.48	18.5676
1552.74	17.3347
1553.01	12.2495
1553.27	14.268
1553.53	2.21649
1553.79	11.1918
1554.05	-2.90442
1554.31	-4.00211
1554.58	0.984406
1554.84	9.00586
1555.1	6.02594
1555.36	13.088
1555.62	6.14267
1555.88	10.1304
1556.15	10.1554
1556.41	3.19873
1556.67	16.2798
1556.93	10.3203
1557.19	7.34326
1557.45	11.3541
1557.72	7.27341
1557.98	-8.78165
1558.24	10.1655
1558.5	16.0979
1558.76	6.03564
1559.02	0.994049
1559.29	6.96716
1559.55	7.95123
1559.81	15.9442
1560.07	8.95569
1560.33	-3.02557
1560.59	13.9893
1560.86	14.0323
1561.12	6.12329
1561.38	1.23416
1561.64	24.3869
1561.9	-3.54901
1562.16	11.4811
1562.43	20.491
1562.69	16.5318
1562.95	-10.4483
1563.21	-0.444611
1563.47	7.65765
1563.73	6.823
1563.99	2.93106
1564.26	20.9891
1564.52	4.91415
1564.78	20.5166
1565.04	15.8001
1565.3	10.1489
1565.56	5.02469
1565.82	20.8191
1566.08	15.892
1566.35	11.6841
1566.61	2.82507
1566.87	15.1739
1567.13	-4.73303
1567.39	19.1061
1567.65	-2.90689
1567.91	4.17154
1568.17	15.2409
1568.43	3.27283
1568.7	4.21417
1568.96	3.15753
1569.22	15.1606
1569.48	14.2175
1569.74	7.27142
1570	15.3091
1570.26	2.35001
1570.52	0.376007
1570.78	16.3779
1571.05	11.3733
1571.31	2.35559
1571.57	13.3559
1571.83	5.37137
1572.09	-0.643066
1572.35	7.32785
1572.61	3.32333
1572.87	7.30005
1573.13	8.27972
1573.39	26.2634
1573.66	12.368
1573.92	17.4659
1574.18	5.59845
1574.44	2.71872
1574.7	14.8228
1574.96	4.93683
1575.22	15
1575.48	3.02911
1575.74	22.0419
1576	15.0606
1576.26	5.02377
1576.53	15.9256
1576.79	17.8329
1577.05	8.76624
1577.31	18.6693
1577.57	11.6158
1577.83	11.5728
1578.09	18.5515
1578.35	12.5961
1578.61	20.6028
1578.87	6.68051
1579.13	3.73419
1579.39	20.7599
1579.65	7.86606
1579.92	-4.0524
1580.18	16.9187
1580.44	13.9328
1580.7	6.93854
1580.96	21.8826
1581.22	4.91385
1581.48	1.88474
1581.74	3.87402
1582	17.8335
1582.26	8.87582
1582.52	5.89978
1582.78	14.8851
1583.04	18.8989
1583.3	15.9148
1583.56	5.97498
1583.82	12.0057
1584.08	27.0058
1584.34	9.12863
1584.6	0.201965
1584.86	13.1697
1585.13	13.1948
1585.39	9.22614
1585.65	13.181
1585.91	22.0913
1586.17	12.1019
1586.43	14.0767
1586.69	14.0716
1586.95	6.11349
1587.21	14.0853
1587.47	10.1331
1587.73	15.1603
1587.99	14.232
1588.25	19.2891
1588.51	21.3569
1588.77	7.49854
1589.03	25.4886
1589.29	20.5651
1589.55	7.65421
1589.81	18.6569
1590.07	14.743
1590.33	15.8135
1590.59	0.908234
1590.85	11.8957
1591.11	23.8633
1591.37	17.896
1591.63	23.845
1591.89	4.86499
1592.15	9.78281
1592.41	13.7511
1592.67	14.6771
1592.93	17.5667
1593.19	27.3918
1593.45	21.3552
1593.71	29.2708
1593.97	12.4011
1594.23	15.4368
1594.49	22.4894
1594.75	11.6428
1595.01	19.6743
1595.27	28.5067
1595.53	31.4713
1595.79	33.4883
1596.05	23.5897
1596.31	18.6649
1596.57	15.7381
1596.83	2.88342
1597.09	12.8854
1597.35	19.8778
1597.61	16.9081
1597.87	17.888
1598.13	6.91339
1598.39	29.6956
1598.65	26.6797
1598.91	19.7057
1599.17	11.7437
1599.43	9.73544
1599.69	16.6588
1599.95	22.5823
1600.21	21.5485
1600.47	11.5704
1600.73	14.4688
1600.99	16.3722
1601.25	28.1898
1601.51	16.2627
1601.76	11.2805
1602.02	31.0398
1602.28	10.2105
1602.54	8.18887
1602.8	17.0556
1603.06	12.0945
1603.32	12.0923
1603.58	16.0648
1603.84	18.0756
1604.1	24.0509
1604.36	18.1551
1604.62	25.1148
1604.88	19.2243
1605.14	22.2405
1605.4	19.3456
1605.66	12.4964
1605.92	30.3783
1606.18	16.5997
1606.44	25.5684
1606.7	21.6602
1606.95	11.7987
1607.21	14.8054
1607.47	36.1919
1607.73	39.1118
1607.99	23.5212
1608.25	39.9612
1608.51	32.1089
1608.77	27.6451
1609.03	30.9958
1609.29	23.9002
1609.55	15.695
1609.81	20.3559
1610.07	23.1385
1610.33	11.5327
1610.59	23.8142
1610.84	31.5755
1611.1	19.3786
1611.36	22.3998
1611.62	19.8742
1611.88	17.3436
1612.14	13.8094
1612.4	17.8028
1612.66	33.6149
1612.92	17.5765
1613.18	31.6438
1613.44	13.8871
1613.69	24.1289
1613.95	15.9661
1614.21	29.4492
1614.47	16.569
1614.73	25.5833
1614.99	17.3245
1615.25	18.3214
1615.51	21.3942
1615.77	31.6414
1616.03	17.3635
1616.28	28.0688
1616.54	18.6566
1616.8	23.3569
1617.06	24.3554
1617.32	32.732
1617.58	27.2799
1617.84	21.3922
1618.1	24.4777
1618.36	22.3135
1618.61	23.341
1618.87	16.4799
1619.13	30.4431
1619.39	20.877
1619.65	26.5047
1619.91	23.6805
1620.17	23.6621
1620.43	24.9657
1620.69	31.8498
1620.94	28.1373
1621.2	22.5951
1621.46	31.1025
1621.72	27.3856
1621.98	30.0635
1622.24	25.4445
1622.5	27.8488
1622.75	27.8369
1623.01	23.7041
1623.27	25.8416
1623.53	25.8242
1623.79	23.0412
1624.05	29.4194
1624.31	24.8232
1624.56	25.7047
1624.82	25.8575
1625.08	28.7407
1625.34	32.431
1625.6	26.8126
1625.86	18.3128
1626.12	27.1466
1626.37	23.6039
1626.63	26.4203
1626.89	20.569
1627.15	25.7216
1627.41	37.2987
1627.67	27.8985
1627.93	24.9628
1628.18	26.0876
1628.44	25.3911
1628.7	27.0866
1628.96	24.1149
1629.22	30.4093
1629.48	34.2489
1629.73	29.187
1629.99	29.9595
1630.25	24.6006
1630.51	21.5439
1630.77	20.3625
1631.03	22.4208
1631.28	27.1512
1631.29	27.1415
1631.55	36.1051
1631.81	29.2396
1632.07	33.2815
1632.33	11.7828
1632.59	31.4865
1632.86	31.34
1633.12	13.5631
1633.38	36.2899
1633.64	26.5229
1633.9	30.5241
1634.16	23.667
1634.42	22.7111
1634.69	27.6596
1634.95	24.7149
1635.21	25.7055
1635.47	14.8633
1635.73	44.4147
1635.99	19.7708
1636.25	49.3093
1636.52	18.751
1636.78	24.6274
1637.04	31.5128
1637.3	30.5475
1637.56	20.7044
1637.82	50.2331
1638.08	29.5588
1638.34	26.6394
1638.6	28.642
1638.87	30.6382
1639.13	42.4797
1639.39	26.758
1639.65	42.5242
1639.91	18.9265
1640.17	18.0407
1640.43	44.7097
1640.69	49.6886
1640.95	25.083
1641.22	40.8261
1641.48	31.97
1641.74	26.0742
1642	33.9662
1642.26	28.0742
1642.52	36.9521
1642.78	33.0348
1643.04	43.889
1643.3	16.3342
1643.56	33.0597
1643.82	21.2334
1644.08	31.0447
1644.35	32.0473
1644.61	35.0394
1644.87	37.0972
1645.13	39.1196
1645.39	33.2645
1645.65	36.2151
1645.91	46.0418
1646.17	26.356
1646.43	40.1317
1646.69	28.3304
1646.95	22.4155
1647.21	33.2347
1647.48	31.2803
1647.74	38.2083
1648	25.5042
1648.26	35.4376
1648.52	38.5598
1648.78	27.9005
1649.04	43.6342
1649.3	27.8814
1649.56	28.8765
1649.82	30.9537
1650.08	36.0154
1650.34	57.7753
1650.6	40.1477
1650.87	35.3042
1651.13	31.4177
1651.39	32.438
1651.65	28.5262
1651.91	45.3203
1652.17	40.4036
1652.43	25.606
1652.69	36.4496
1652.95	35.4919
1653.21	44.403
1653.47	44.465
1653.73	34.6694
1653.99	53.4393
1654.25	17.0258
1654.51	33.8506
1654.77	30.989
1655.03	30.1274
1655.29	42.1159
1655.55	30.4031
1655.81	39.3763
1656.07	32.5334
1656.33	38.5051
1656.59	35.5695
1656.86	22.7409
1657.12	35.5647
1657.38	26.6854
1657.64	30.6373
1657.9	43.4588
1658.16	32.5872
1658.42	47.3621
1658.68	35.5017
1658.94	21.6728
1659.2	32.4975
1659.46	9.7807
1659.72	21.6472
1659.98	37.4919
1660.24	34.6164
1660.5	30.7628
1660.76	42.6937
1661.02	40.8269
1661.28	29.0475
1661.54	28.16
1661.8	17.9487
1662.06	37.2951
1662.32	44.7276
1662.58	26.7987
1662.84	29.7223
1663.1	34.7609
1663.36	47.6742
1663.62	26.3867
1663.88	30.48
1664.14	24.5806
1664.4	30.7091
1664.66	24.9648
1664.92	23.7511
1665.18	30.937
1665.44	17.2528
1665.7	47.0789
1665.96	31.1771
1666.22	31.2131
1666.48	24.4807
1666.74	28.8027
1667	25.7956
1667.26	32.6622
1667.52	31.6794
1667.78	29.6682
1668.04	42.5056
1668.3	28.8387
1668.56	14.295
1668.82	22.2726
1669.08	28.2335
1669.34	36.1765
1669.6	25.3285
1669.86	24.3205
1670.12	20.5523
1670.38	23.7135
1670.64	22.7207
1670.9	20.7397
1671.15	12.8471
1671.41	24.7368
1671.67	23.8134
1671.93	13.969
1672.19	32.7815
1672.45	42.6892
1672.71	37.7836
1672.97	29.9171
1673.23	29.9662
1673.49	24.0956
1673.75	30.1013
1674.01	25.2299
1674.27	29.2563
1674.53	16.4839
1674.79	26.4649
1675.05	28.5054
1675.31	30.5237
1675.57	37.4732
1675.83	22.6629
1676.09	24.6883
1676.35	16.8099
1676.61	20.7948
1676.86	14.8679
1677.12	29.7118
1677.38	21.7785
1677.64	15.8079
1677.9	24.666
1678.16	16.7168
1678.42	11.7514
1678.68	24.5902
1678.94	21.6201
1679.2	33.4765
1679.46	17.6537
1679.72	20.6184
1679.98	31.4835
1680.24	14.6773
1680.5	25.5421
1680.75	13.694
1681.01	22.6043
1681.27	22.6277
1681.53	27.5932
1681.79	26.6345
1682.05	21.7281
1682.31	23.7216
1682.57	12.8707
1682.83	22.771
1683.09	23.7843
1683.35	26.7671
1683.61	13.9333
1683.86	4.03857
1684.12	26.7478
1684.38	20.8293
1684.64	25.7807
1684.9	25.7996
1685.16	16.9363
1685.42	15.9769
1685.68	26.8712
1685.94	12.1053
1686.2	18.1233
1686.45	21.1542
1686.71	18.2315
1686.97	13.2981
1687.23	22.1771
1687.49	36.9777
1687.75	45.859
1688.01	10.2998
1688.27	24.1072
1688.53	17.1479
1688.79	23.0397
1689.04	22.0202
1689.3	25.9302
1689.56	28.836
1689.82	22.886
1690.08	41.744
1690.34	17.155
1690.6	18.1998
1690.86	28.1131
1691.12	25.2062
1691.37	15.4012
1691.63	19.3799
1691.89	6.56076
1692.15	19.3754
1692.41	20.3239
1692.67	20.2776
1692.93	13.3124
1693.18	20.1432
1693.44	26.0036
1693.7	6.25909
1693.96	21.9801
1694.22	18.9951
1694.48	37.7206
1694.74	11.1671
1695	20.0781
1695.25	13.2258
1695.51	19.1847
1695.77	15.3084
1696.03	14.3852
1696.29	2.58878
1696.55	18.3566
1696.8	14.3856
1697.06	26.1512
1697.32	20.1774
1697.58	21.1121
1697.84	25.0146
1698.1	14.1574
1698.36	16.1036
1698.62	26.9238
1698.87	13.1618
1699.13	15.1666
1699.39	20.1193
1699.65	11.2923
1699.91	17.1761
1700.17	11.2709
1700.42	3.41238
1700.68	14.2407
1700.94	2.43497
1701.2	19.1329
1701.46	14.1771
1701.71	14.1416
1701.97	16.0686
1702.23	19.9628
1702.49	6.20193
1702.75	17.0248
1703.01	17.0304
1703.26	0.322662
1703.52	12.1142
1703.78	19.036
1704.04	12.2254
1704.3	18.1629
1704.55	7.36676
1704.81	13.2657
1705.07	7.3912
1705.33	9.38516
1705.59	13.2968
1705.85	19.1479
1706.1	10.2577
1706.36	16.0919
1706.62	13.0881
1706.88	22.8566
1707.14	11.0219
1707.4	9.96396
1707.65	10.8661
1707.91	11.7709
1708.17	8.73621
1708.43	-4.0834
1708.69	17.4076
1708.94	22.2718
1709.2	17.3734
1709.46	13.4731
1709.72	13.5026
1709.97	12.556
1710.23	25.3252
1710.49	16.5923
1710.75	2.93732
1711.01	10.8243
1711.26	11.8539
1711.52	8.95142
1711.78	3.07312
1712.04	6.93814
1712.3	10.7459
1712.55	8.67844
1712.81	9.5397
1713.07	6.52649
1713.33	13.2531
1713.58	14.1884
1713.84	10.2615
1714.1	4.39096
1714.36	7.32495
1714.62	2.45471
1714.87	17.1609
1715.13	-2.26251
1715.39	17.3064
1715.65	10.4667
1715.9	5.56357
1716.16	9.43036
1716.42	10.3439
1716.68	-5.35944
1716.93	11.1266
1717.19	7.09299
1717.45	16.7136
1717.71	6.87024
1717.96	12.6235
1718.22	11.5952
1718.48	1.8342
1718.74	4.76489
1718.99	3.81445
1719.25	19.399
1719.51	7.74664
1719.77	8.76926
1720.02	0.978088
1720.28	5.81613
1720.54	2.8399
1720.8	1.81339
1721.05	10.5322
1721.31	7.5647
1721.57	13.3437
1721.83	-0.326385
1722.08	0.588531
1722.34	5.39398
1722.6	16.0324
1722.86	10.1682
1723.11	1.40976
1723.37	9.1893
1723.63	-0.516388
1723.88	13.0774
1724.14	13.0585
1724.4	25.6183
1724.66	-4.55792
1724.91	19.5963
1725.17	11.7409
1725.43	18.4572
1725.69	2.92676
1725.94	0.0513
1726.2	0.0635376
1726.46	7.79404
1726.71	0.937134
1726.97	-2.9487
1727.23	14.5685
1727.49	3.93826
1727.74	2.94388
1728	2.86182
1728.26	-0.383759
1728.51	8.82581
1728.77	8.59897
1729.03	2.93738
1729.29	6.02658
1729.54	1.35043
1729.8	7.04172
1730.06	5.02216
1730.31	6.92865
1730.57	0.474884
1730.83	1.54712
1731.08	7.37836
1731.34	3.52933
1731.6	2.56927
1731.85	5.45963
1732.11	14.1456
1732.37	2.52847
1732.63	4.42139
1732.88	4.35269
1733.14	9.08206
1733.4	-4.54733
1733.65	-7.51193
1733.91	-5.65555
1734.17	2.94272
1734.42	-6.77338
1734.68	3.7471
1734.94	1.74829
1735.19	7.47894
1735.45	-7.95609
1735.71	-2.18805
1735.97	5.50397
1736.22	1.63406
1736.48	1.61401
1736.73	2.55209
1736.99	-1.31891
1737.25	5.3981
1737.5	11.1379
1737.76	-5.25314
1738.02	8.16052
1738.28	6.19376
1738.53	6.1424
1738.79	-1.60834
1739.04	-10.3366
1739.3	-1.81192
1739.56	2.87057
1739.81	6.60721
1740.07	-1.1463
1740.33	-2.1622
1740.58	-1.25153
1740.84	3.48993
1741.1	-0.385284
1741.35	2.45349
1741.61	-4.26459
1741.87	3.39532
1742.12	9.13998
1742.38	0.510925
1742.64	11.0375
1742.89	0.519501
1743.15	4.34671
1743.4	6.22226
1743.66	-10.0836
1743.92	-8.19202
1744.17	-3.42014
1744.43	3.29437
1744.69	-3.37686
1744.94	1.42874
1745.2	2.39337
1745.46	-4.31476
1745.71	-12.0006
1745.97	6.10941
1746.23	6.03702
1746.48	-1.66656
1746.74	-3.63596
1746.99	6.80988
1747.25	-0.877228
1747.51	11.5048
1747.76	-5.66724
1748.02	-7.55432
1748.28	1.06805
1748.53	-1.75653
1748.79	-1.7041
1749.04	-6.41165
1749.3	3.2175
1749.56	-4.33615
1749.81	5.31104
1750.07	-3.20193
1750.32	-4.10318
1750.58	-6.92087
1750.84	5.54367
1751.09	-2.1138
1751.35	-3.12708
1751.61	-1.29028
1751.86	8.20538
1752.12	-1.3924
1752.37	-0.486298
1752.63	5.19174
1752.88	-8.21118
1753.14	2.25247
1753.4	8.89957
1753.65	-2.5921
1753.91	-1.68716
1754.16	-1.71918
1754.42	-3.64948
1754.68	-11.2921
1754.93	-2.73141
1755.19	3.90985
1755.44	-10.4252
1755.7	4.76355
1755.96	3.74811
1756.21	11.2863
1756.47	1.68637
1756.72	3.51666
1756.98	2.53674
1757.23	-5.09171
1757.49	-2.21265
1757.75	-4.96652
1758	4.60757
1758.26	9.39569
1758.51	0.855713
1758.77	-3.8793
1759.02	-1.94144
1759.28	3.78711
1759.54	0.930878
1759.79	8.53622
1760.05	-0.036377
1760.3	3.7547
1760.56	10.3848
1760.81	-1.0712
1761.07	-5.86307
1761.33	-4.93433
1761.58	-6.83969
1761.84	-4.94528
1762.09	-8.67679
1762.35	-0.0617676
1762.6	-0.0296936
1762.86	-0.979614
1763.11	2.84976
1763.37	-0.91394
1763.63	-3.71753
1763.88	-0.802429
1764.14	5.05902
1764.39	-9.14694
1764.65	-1.47089
1764.9	-7.13318
1765.16	6.23618
1765.41	-5.15588
1765.67	-5.13437
1765.92	-0.362122
1766.18	-1.31714
1766.43	9.1438
1766.69	6.30716
1766.95	7.25455
1767.2	-0.378693
1767.46	3.39294
1767.71	1.47815
1767.97	-4.25241
1768.22	-5.18573
1768.48	1.38486
1768.73	8.82758
1768.99	-4.60889
1769.24	9.51291
1769.5	-6.60751
1769.75	2.95642
1770.01	-4.51959
1770.26	-2.59683
1770.52	-6.36218
1770.77	-0.58139
1771.03	-7.09546
1771.28	-4.168
1771.54	3.46768
1771.79	-5.98019
1772.05	-6.85205
1772.31	-1.07437
1772.56	-5.77499
1772.82	6.65051
1773.07	-1.86331
1773.33	-2.76727
1773.58	3.94
1773.84	-0.782227
1774.09	5.91547
1774.35	5.97064
1774.6	7.92459
1774.86	8.94269
1775.11	-0.442657
1775.37	0.62616
1775.62	4.50354
1775.87	-1.18103
1776.13	5.50116
1776.39	-5.9538
1776.64	1.6391
1776.89	-6.00467
1777.15	4.44543
1777.41	5.35968
1777.66	-9.91882
1777.91	2.4248
1778.17	-8.09366
1778.42	0.414673
1778.68	-2.50729
1778.93	1.25854
1779.19	3.16479
1779.44	11.8158
1779.7	1.40381
1779.95	10.0093
1780.21	-0.41626
1780.46	-3.22427
1780.72	-5.09918
1780.97	-2.21381
1781.23	-6.93222
1781.48	-4.97153
1781.74	-0.144897
1781.99	2.79926
1782.25	-5.70572
1782.5	-3.74496
1782.75	0.118134
1783.01	-5.54416
1783.26	7.85837
1783.52	-4.47379
1783.77	12.7594
1784.03	-3.35706
1784.28	-9.01077
1784.54	4.39365
1784.79	-0.355164
1785.05	0.603607
1785.3	0.591248
1785.56	7.24826
1785.81	10.1266
1786.06	-2.23541
1786.32	11.185
1786.57	-3.0481
1786.83	0.866852
1787.08	-1.87836
1787.34	5.005
1787.59	4.26416
1787.85	1.62
1788.1	9.44537
1788.35	0.899811
1788.61	3.84921
1788.86	0.158325
1789.12	-1.65381
1789.37	7.98792
1789.63	5.16699
1789.88	3.31622
1790.13	-1.45154
1790.39	11.0109
1790.64	-0.495575
1790.9	2.16177
1791.15	0.24057
1791.4	9.7959
1791.66	4.06671
1791.91	-0.689087
1792.17	8.91318
1792.42	8.97464
1792.68	-3.43515
1792.93	9.0538
1793.18	1.39227
1793.44	13.9169
1793.69	3.40152
1793.95	5.34714
1794.2	15.8454
1794.45	5.35355
1794.71	-2.04456
1794.96	4.86368
1795.22	4.01413
1795.47	-6.48163
1795.73	13.7528
1795.98	3.26544
1796.23	-0.499817
1796.49	4.38284
1796.74	-0.345581
1797	7.41098
1797.25	1.70328
1797.5	19.0597
1797.76	8.53201
1798.01	3.76196
1798.27	10.5159
1798.52	6.67221
1798.77	2.81131
1799.03	9.51141
1799.28	8.50616
1799.53	9.42245
1799.79	13.235
1800.04	6.48648
1800.3	11.2757
1800.55	11.2705
1800.8	2.63
1801.06	-3.11957
1801.31	10.3524
1801.56	-5.94235
1801.82	-2.05652
1802.07	2.80096
1802.33	0.944458
1802.58	5.8252
1802.83	12.6374
1803.09	1.17484
1803.34	4.10934
1803.59	1.25693
1803.85	3.22821
1804.1	8.11063
1804.36	3.37451
1804.61	-0.394806
1804.86	16.0622
1805.12	1.71353
1805.37	14.3185
1805.62	8.6134
1805.88	6.75247
1806.13	15.4849
1806.38	8.78613
1806.64	-6.60492
1806.89	7.87109
1807.15	8.85153
1807.4	7.90594
1807.65	8.8905
1807.91	5.05759
1808.16	9.90149
1808.41	14.7476
1808.67	8.99139
1808.92	7.08981
1809.17	4.22525
1809.43	6.18192
1809.68	1.38736
1809.93	15.8698
1810.19	3.3396
1810.44	-2.44638
1810.69	0.453796
1810.95	-0.501373
1811.2	8.1842
1811.45	4.34467
1811.71	-0.450043
1811.96	10.2023
1812.21	7.36575
1812.47	5.5065
1812.72	5.57498
1812.97	1.74457
1813.23	10.4812
1813.48	12.4915
1813.73	7.76694
1813.99	7.8613
1814.24	18.6158
1814.49	5.16821
1814.75	12.0009
1815	-2.45184
1815.25	13.0434
1815.5	13.071
1815.76	6.33878
1816.01	1.5332
1816.26	-0.348816
1816.52	2.54187
1816.77	12.2047
1817.02	7.24603
1817.28	-1.56848
1817.53	9.07532
1817.78	10.105
1818.04	0.538483
1818.29	10.2911
1818.54	15.1105
1818.8	18.0443
1819.05	2.62958
1819.3	19.1175
1819.55	11.4254
1819.81	11.4749
1820.06	1.86188
1820.31	13.5186
1820.56	1.95291
1820.82	2.00604
1821.07	4.97162
1821.32	-0.773834
1821.58	10.8907
1821.83	17.71
1822.08	1.29221
1822.34	6.16275
1822.59	12.97
1822.84	5.24039
1823.09	14.9081
1823.35	13.9233
1823.6	21.6601
1823.85	8.14651
1824.11	13.0292
1824.36	16.9424
1824.61	9.24106
1824.86	9.28812
1825.12	9.3288
1825.37	3.54053
1825.62	4.52148
1825.88	8.41153
1826.13	6.49823
1826.38	17.1719
1826.63	3.64206
1826.89	11.4333
1827.14	11.4801
1827.39	7.65146
1827.64	5.73718
1827.9	3.79904
1828.15	6.69489
1828.4	3.75827
1828.65	11.4861
1828.91	1.79935
1829.16	11.4871
1829.41	15.3566
1829.66	5.65399
1829.92	2.72366
1830.17	14.3232
1830.42	12.3896
1830.67	31.7979
1830.93	1.83768
1831.18	5.7663
1831.43	15.5053
1831.68	12.6522
1831.94	9.80219
1832.19	13.7495
1832.44	4.12238
1832.69	4.14883
1832.94	13.8582
1833.2	5.17099
1833.45	7.1431
1833.7	8.14224
1833.95	11.9809
1834.21	11.8403
1834.46	6.84781
1834.71	10.5886
1834.96	8.56033
1835.21	7.52264
1835.47	6.54181
1835.72	12.3095
1835.97	16.1476
1836.22	5.88623
1836.48	18.0635
1836.73	11.079
1836.98	13.8083
1837.23	18.4472
1837.48	13.3353
1837.74	16.0124
1837.99	14.0239
1838.24	13.4705
1838.49	6.06363
1838.75	8.13373
1839	7.23645
1839.25	9.22626
1839.5	6.40054
1839.75	12.0244
1840.01	6.94785
1840.26	-2.89999
1840.51	9.52365
1840.76	9.38721
1841.01	1.53088
1841.26	4.31485
1841.52	4.21185
1841.77	8.94202
1842.02	7.88651
1842.27	12.7413
1842.53	6.95599
1842.78	3.12845
1843.03	-3.60745
1843.28	8.94263
1843.53	6.99908
1843.78	7.00183
1844.04	4.15009
1844.29	1.28061
1844.54	12.8275
1844.79	7.05045
1845.04	4.17319
1845.3	2.35675
1845.55	9.25763
1845.8	14.223
1846.05	8.64056
1846.3	8.55637
1846.55	0.456055
1846.81	15.3767
1847.06	4.61481
1847.31	9.42227
1847.56	10.5285
1847.81	6.84644
1848.06	3.85315
1848.32	3.7662
1848.57	11.4796
1848.82	16.2546
1849.07	2.70502
1849.32	8.3938
1849.57	-1.30289
1849.83	5.3233
1850.08	2.35916
1850.33	8.05267
1850.58	15.6816
1850.83	16.5902
1851.08	3.10663
1851.34	5.96362
1851.59	4.03638
1851.84	6.92368
1852.09	7.89536
1852.34	5.98535
1852.59	6.95001
1852.84	0.221161
1853.1	10.7639
1853.35	-5.59897
1853.6	1.05011
1853.85	5.76102
1854.1	9.51202
1854.35	7.54932
1854.6	9.43796
1854.85	4.5748
1855.11	1.60391
1855.36	1.54709
1855.61	8.23471
1855.86	-2.31116
1856.11	3.44391
1856.36	2.49756
1856.61	11.1157
1856.87	13.9753
1857.12	12.0328
1857.37	8.17572
1857.62	2.39651
1857.87	3.30481
1858.12	8.98828
1858.37	6.05536
1858.62	14.6009
1858.88	8.79227
1859.13	6.8266
1859.38	10.6448
1859.63	4.92416
1859.88	10.6802
1860.13	7.8743
1860.38	-3.53235
1860.63	0.345673
1860.88	-1.50403
1861.14	0.472839
1861.39	6.24762
1861.64	3.37665
1861.89	-5.2648
1862.14	12.8596
1862.39	6.10107
1862.64	2.21234
1862.89	13.6236
1863.14	3.05051
1863.39	6.82224
1863.65	1.04276
1863.9	5.77496
1864.15	1.91037
1864.4	5.67862
1864.65	2.74939
1864.9	-2.10181
1865.15	4.48846
1865.4	4.3837
1865.65	6.17407
1865.9	7.95728
1866.15	15.4566
1866.4	0.101288
1866.66	0.937592
1866.91	0.831024
1867.16	13.1078
1867.41	2.59601
1867.66	-0.282776
1867.91	8.25854
1868.16	3.51361
1868.41	-0.26413
1868.66	19.7128
1868.91	11.1505
1869.16	0.683716
1869.41	4.47714
1869.67	14.9258
1869.92	12.0678
1870.17	4.46005
1870.42	12.0638
1870.67	5.41504
1870.92	4.45612
1871.17	12.0341
1871.42	8.19348
1871.67	4.35971
1871.92	2.43881
1872.17	-0.450989
1872.42	2.34491
1872.67	-1.48999
1872.92	2.29712
1873.17	11.7784
1873.42	0.357178
1873.67	6.00519
1873.92	8.7941
1874.17	0.190674
1874.43	2.96674
1874.68	0.997772
1874.93	7.55585
1875.18	5.56494
1875.43	4.47073
1875.68	0.564087
1875.93	22.2441
1876.18	9.87189
1876.43	-7.19611
1876.68	7.81815
1876.93	-2.75067
1877.18	2.61575
1877.43	9.34357
1877.68	2.72382
1877.93	2.67551
1878.18	4.32339
1878.43	1.45148
1878.68	-0.219086
1878.93	17.0232
1879.18	6.56271
1879.43	14.0467
1879.68	-1.12643
1879.93	8.33231
1880.18	-2.02594
1880.43	-3.00101
1880.68	3.60556
1880.93	1.61978
1881.18	10.9408
1881.43	9.84653
1881.68	6.85663
1881.93	13.3008
1882.18	8.37735
1882.43	3.55447
1882.68	-6.05753
1882.93	7.77066
1883.19	4.30969
1883.43	4.33774
1883.68	1.38318
1883.94	6.26053
1884.19	3.34509
1884.43	3.41132
1884.68	13.0015
1884.94	-6.73541
1885.18	-5.74576
1885.43	9.48969
1885.68	11.4746
1885.94	3.98117
1886.18	-1.69269
1886.43	1.9826
1886.68	7.57523
1886.93	11.2858
1887.18	0.840637
1887.43	-0.171295
1887.68	5.41171
1887.93	5.3027
1888.18	-1.39502
1888.43	2.28656
1888.68	5.01871
1888.93	-3.50922
1889.18	-1.62613
1889.43	2.12457
1889.68	-0.672485
1889.93	4.10657
1890.18	2.31171
1890.43	7.05585
1890.68	0.465485
1890.93	0.438446
1891.18	5.1528
1891.43	6.0824
1891.68	5.12744
1891.93	3.24786
1892.18	-8.08426
1892.43	8.81281
1892.68	-2.56592
1892.93	1.9762
1893.18	-11.3356
1893.43	2.69131
1893.68	4.67633
1893.93	3.62039
1894.18	4.50754
1894.43	6.3623
1894.68	13.8909
1894.92	-2.99194
1895.17	0.803345
1895.42	7.42365
1895.67	-7.56839
1895.92	-3.75604
1896.17	3.83099
1896.42	7.65439
1896.67	8.64404
1896.92	-3.54483
1897.17	9.64795
1897.42	-0.690338
1897.67	4.00449
1897.92	9.62259
1898.17	-8.28864
1898.42	2.93726
1898.67	-2.7746
1898.92	4.68637
1899.16	9.35895
1899.42	4.63217
1899.66	3.65424
1899.91	-3.86722
1900.16	4.59854
1900.41	-2.88184
1900.66	4.68573
1900.91	0.0596924
1901.16	-7.39703
1901.41	5.83334
1901.66	3.08484
1901.91	3.16995
1902.16	12.5969
1902.41	-0.591949
1902.65	3.1488
1902.9	3.1171
1903.15	3.09546
1903.4	1.2009
1903.65	0.251892
1903.9	-2.57184
1904.15	4.94672
1904.4	-2.58331
1904.65	3.98871
1904.9	4.93137
1905.15	-2.59494
1905.4	2.98944
1905.64	7.56909
1905.89	-2.80133
1906.14	-0.951874
1906.39	1.83957
1906.64	7.45697
1906.89	7.4581
1907.14	3.72977
1907.39	0.945374
1907.64	-2.74182
1907.88	0.112061
1908.13	0.133698
1908.38	7.68469
1908.63	-4.47937
1908.88	-1.5961
1909.13	1.30301
1909.38	1.39725
1909.63	-0.380005
1909.88	2.55325
1910.13	-2.99036
1910.37	-5.73801
1910.62	9.38715
1910.87	8.48508
1911.12	-4.68024
1911.37	-1.84866
1911.62	12.271
1911.87	-7.52811
1912.12	-4.70404
1912.36	-1.8743
1912.61	0.958588
1912.86	0.971619
1913.11	1.95639
1913.36	2.98474
1913.61	12.5143
1913.86	2.22894
1914.1	-0.53418
1914.35	20.2885
1914.6	5.26437
1914.85	7.20544
1915.1	8.17838
1915.35	0.632538
1915.6	4.39026
1915.85	1.54453
1916.09	-2.2543
1916.34	-4.19958
1916.59	8.95441
1916.84	-2.40088
1917.09	5.11328
1917.34	4.15555
1917.58	-1.49414
1917.83	3.26129
1918.08	2.38739
1918.33	-1.30124
1918.58	11.059
1918.83	-2.05115
1919.08	4.68008
1919.32	-1.80853
1919.57	2.04153
1919.82	8.68344
1920.07	6.77353
1920.32	6.77744
1920.57	4.9668
1920.81	2.2182
1921.06	9.84299
1921.31	0.431305
1921.56	15.602
1921.81	-0.465881
1922.06	-0.479279
1922.3	8.94009
1922.55	11.7346
1922.8	4.1445
1923.05	7.90643
1923.3	10.7197
1923.55	0.28894
1923.79	4.02145
1924.04	3.03952
1924.29	4.91803
1924.54	3.98602
1924.79	2.13562
1925.03	1.25507
1925.28	7.01822
1925.53	4.27576
1925.78	0.576355
1926.03	-1.22943
1926.27	-2.08017
1926.52	6.51459
1926.77	14.1427
1927.02	10.4043
1927.27	11.3965
1927.52	5.75488
1927.76	2.0043
1928.01	4.87509
1928.26	3.01999
1928.51	-5.46332
1928.76	18.2807
1929	-0.607697
1929.25	4.22647
1929.5	2.41681
1929.75	7.25235
1929.99	2.59152
1930.24	-1.12286
1930.49	5.56421
1930.74	11.2748
1930.99	5.56647
1931.23	-0.161743
1931.48	4.54865
1931.73	5.46027
1931.98	1.62701
1932.23	10.1249
1932.47	3.46704
1932.72	7.23322
1932.97	6.2934
1933.22	5.42441
1933.47	3.66818
1933.71	7.66095
1933.96	3.16763
1934.21	-0.371765
1934.46	8.43115
1934.7	6.72659
1934.95	4.98135
1935.2	16.5406
1935.45	3.05783
1935.69	1.07861
1935.94	7.73975
1936.19	18.191
1936.44	-2.82516
1936.68	10.4439
1936.93	5.61963
1937.18	12.2253
1937.43	12.1715
1937.67	4.5
1937.92	5.44046
1938.17	3.62543
1938.42	-4.88669
1938.67	8.49011
1938.91	8.54541
1939.16	-6.6492
1939.41	9.59686
1939.66	5.8111
1939.9	8.73422
1940.15	4.04922
1940.4	6.13348
1940.64	4.36694
1940.89	13.9359
1941.14	2.45493
1941.39	2.36581
1941.63	8.87717
1941.88	9.88428
1942.13	0.624969
1942.38	0.749756
1942.62	8.41177
1942.87	-2.18188
1943.12	9.13965
1943.37	0.446716
1943.61	2.48996
1943.86	-3.13773
1944.11	4.56284
1944.36	2.7258
1944.6	0.892883
1944.85	11.4799
1945.1	10.6043
1945.34	3.98706
1945.59	9.78564
1945.84	9.83829
1946.09	4.14084
1946.33	2.25284
1946.58	9.90643
1946.83	5.10541
1947.08	-0.659058
1947.32	9.85141
1947.57	2.20197
1947.82	-0.665558
1948.06	11.7484
1948.31	11.7591
1948.56	1.29144
1948.8	0.397766
1949.05	8.1185
1949.3	-2.32956
1949.55	5.40869
1949.79	5.5314
1950.04	3.7565
1950.29	7.70618
1950.53	5.90961
1950.78	15.6283
1951.03	3.27927
1951.28	12.9781
1951.52	1.52792
1951.77	2.53973
1952.02	8.35364
1952.26	0.673523
1952.51	10.3241
1952.76	7.51968
1953	0.744751
1953.25	10.2422
1953.5	8.14404
1953.74	1.25583
1953.99	4.93362
1954.24	4.79544
1954.48	-1.96912
1954.73	20.0509
1954.98	9.54453
1955.22	6.74774
1955.47	2.0795
1955.72	3.23953
1955.96	2.3913
1956.21	2.48987
1956.46	15.9961
1956.7	5.50491
1956.95	14.2192
1957.2	13.3217
1957.44	5.68506
1957.69	7.6438
1957.94	4.78705
1958.19	13.4582
1958.43	18.2492
1958.68	11.4698
1958.92	17.2019
1959.17	8.54254
1959.42	8.50446
1959.66	22.8672
1959.91	3.61307
1960.16	6.44666
1960.4	3.5126
1960.65	6.34128
1960.9	6.29556
1961.14	1.46555
1961.39	10.1086
1961.64	0.530792
1961.88	5.34479
1962.13	10.1598
1962.38	2.49689
1962.62	9.23105
1962.87	5.40515
1963.12	6.37872
1963.36	4.47491
1963.61	3.55176
1963.85	11.2716
1964.1	8.39462
1964.35	7.41422
1964.59	5.49927
1964.84	4.53183
1965.09	13.179
1965.33	3.60513
1965.58	1.74075
1965.82	10.4553
1966.07	10.5281
1966.32	8.65948
1966.56	5.82199
1966.81	10.6263
1967.06	11.5891
1967.3	-1.8414
1967.55	10.6732
1967.79	12.6105
1968.04	0.114471
1968.29	3.9379
1968.53	6.77554
1968.78	8.62805
1969.03	13.3404
1969.27	9.40118
1969.52	17.9603
1969.76	4.45651
1970.01	6.33121
1970.26	-0.432831
1970.5	1.43991
1970.75	8.12125
1970.99	7.13367
1971.24	2.31497
1971.49	3.28723
1971.73	5.23929
1971.98	11.0158
1972.23	3.34363
1972.47	2.36444
1972.72	3.27994
1972.96	-3.49503
1973.21	9.87183
1973.46	8.87155
1973.7	10.7617
1973.95	9.79047
1974.19	13.6255
1974.44	5.96884
1974.68	4.07581
1974.93	-7.3905
1975.18	8.9559
1975.42	2.28745
1975.67	8.07666
1975.91	6.1825
1976.16	10.993
1976.41	7.16129
1976.65	14.8298
1976.9	6.18015
1977.14	3.27301
1977.39	7.06595
1977.63	10.8527
1977.88	-2.61078
1978.12	3.10861
1978.37	9.79773
1978.62	12.6705
1978.86	8.84662
1979.11	-0.732697
1979.35	4.07019
1979.6	8.87271
1979.85	14.6033
1980.09	9.76108
1980.34	2.04306
1980.58	5.84576
1980.83	0.0622864
1981.07	9.60501
1981.32	18.2043
1981.56	10.5302
1981.81	8.60501
1982.06	9.52444
1982.3	2.7695
1982.55	11.3215
1982.79	7.4068
1983.04	14.0316
1983.28	3.4729
1983.53	1.53973
1983.77	3.42627
1984.02	11.0474
1984.26	10.0646
1984.51	12.889
1984.76	4.211
1985	1.29547
1985.25	-0.619171
1985.49	4.17731
1985.74	6.12704
1985.98	6.17859
1986.23	-6.2189
1986.47	15.7704
1986.72	8.13361
1986.96	-2.41345
1987.21	8.01767
1987.45	4.09744
1987.7	2.07681
1987.95	0.994812
1988.19	1.75653
1988.44	4.40494
1988.68	4.22256
1988.93	7.82532
1989.17	5.77002
1989.42	4.77295
1989.66	16.6272
1989.91	2.57263
1990.15	5.32071
1990.4	7.09039
1990.64	3.53693
1990.89	2.72998
1991.13	15.6992
1991.38	2.34082
1991.62	1.41977
1991.87	1.02036
1992.11	1.72293
1992.36	1.97574
1992.6	9.41934
1992.85	16.3987
1993.09	-3.72299
1993.34	2.43039
1993.58	5.60095
1993.83	7.88016
1994.07	10.1542
1994.32	4.93484
1994.56	7.32755
1994.81	7.39832
1995.05	3.15616
1995.3	4.84235
1995.54	2.47421
1995.79	8.57489
1996.03	7.26785
1996.28	-1.33652
1996.52	6.61063
1996.77	-0.173401
1997.01	0.558655
1997.26	0.787079
1997.5	2.39008
1997.75	0.979706
1997.99	1.56976
1998.24	5.33542
1998.48	1.18481
1998.73	5.64432
1998.97	5.09924
1999.22	5.28207
1999.46	0.821991
1999.71	3.15601
1999.95	4.19199
2000.19	0.71109
2000.44	5.65924
2000.69	0.452576
2000.93	1.87738
2001.17	6.8233
2001.42	4.7576
2001.66	4.63608
2001.91	8.20203
2002.15	5.80814
2002.4	2.58633
2002.64	-0.731567
2002.89	-0.546173
2003.13	1.32416
2003.37	4.02768
2003.62	2.65588
2003.86	7.37164
2004.11	-0.61142
2004.35	-1.55862
2004.6	4.75763
2004.84	3.59052
2005.09	5.23456
2005.33	7.62875
2005.58	1.58099
2005.82	7.1395
2006.07	4.81778
2006.31	3.11707
2006.55	4.26389
2006.8	0.356293
2007.04	-0.097229
2007.29	1.44586
2007.53	2.71054
2007.78	5.0733
2008.02	4.80429
2008.27	1.38818
2008.51	1.66846
2008.75	2.16367
2009	-1.75299
2009.24	5.36832
2009.49	9.92422
2009.73	7.47333
2009.97	-0.399292
2010.22	-4.90955
2010.46	-1.98581
2010.71	-4.50607
2010.95	8.2114
2011.19	-5.21741
2011.44	-3.10666
2011.68	-4.84586
2011.93	-5.52094
2012.17	3.37399
2012.41	1.45041
2012.66	2.30737
2012.91	-4.44943
2013.15	3.93246
2013.4	-5.57532
2013.65	-1.94397
2013.9	0.723175
2014.14	4.30942
2014.39	-4.19131
2014.64	-6.06116
2014.88	-2.27374
2015.13	3.41342
2015.38	7.20779
2015.63	0.632629
2015.87	-0.323883
2016.12	-6.62903
2016.37	-1.86926
2016.61	1.87744
2016.86	8.41428
2017.11	7.4061
2017.36	-3.95633
2017.6	-2.18845
2017.85	-3.25259
2018.1	-6.18118
2018.34	3.0914
2018.59	-0.78006
2018.84	0.041626
2019.08	11.2101
2019.33	0.866455
2019.58	-4.78824
2019.83	4.57144
2020.07	-0.125
2020.32	-0.139862
2020.57	1.74081
2020.81	0.826202
2021.06	7.38702
2021.31	1.75497
2021.55	-1.0809
2021.8	-2.99399
2022.05	-3.98508
2022.3	2.49686
2022.54	-2.26709
2022.79	-1.40247
2023.04	-0.531738
2023.28	-1.53488
2023.53	-7.21115
2023.78	-1.66287
2024.02	-0.816132
2024.27	0.0116882
2024.52	-2.89255
2024.76	2.61185
2025.01	-3.07953
2025.26	-6.89551
2025.5	11.6589
2025.75	2.32755
2026	4.2897
2026.24	6.3324
2026.49	-6.51944
2026.74	-6.27261
2026.98	-4.22473
2027.23	-5.15811
2027.48	-9.99274
2027.72	2.8342
2027.97	-1.60364
2028.22	-4.89444
2028.46	-2.89728
2028.71	6.16177
2028.96	-6.79214
2029.2	1.23453
2029.45	-3.79724
2029.7	21.9614
2029.94	6.06305
2030.19	0.198944
2030.44	-1.50153
2030.68	-6.89136
2030.93	-11.5869
2031.18	-2.25864
2031.42	3.33316
2031.67	1.54678
2031.91	-2.09164
2032.16	6.4238
2032.41	8.39658
2032.65	1.93997
2032.9	5.73514
2033.15	0.207214
2033.39	-9.98114
2033.64	2.94885
2033.88	7.46277
2034.13	9.90247
2034.38	1.35583
2034.62	0.562256
2034.87	-1.21396
2035.12	-0.130524
2035.36	-2.70639
2035.61	10.5554
2035.86	1.25577
2036.1	7.60989
2036.35	-3.64066
2036.59	-0.739227
2036.84	2.99826
2037.09	-5.42975
2037.33	-5.4584
2037.58	1.04855
2037.82	-2.7341
2038.07	-4.65115
2038.32	1.84052
2038.56	-5.68378
2038.81	-1.99911
2039.06	-0.185242
2039.3	7.22318
2039.55	5.26727
2039.79	-3.21872
2040.04	-3.29895
2040.29	-1.50836
2040.53	-3.44025
2040.78	-3.49622
2041.02	3.92792
2041.27	3.91043
2041.52	1.07608
2041.76	-1.7626
2042.01	-0.884491
2042.25	-1.86008
2042.5	-6.51971
2042.75	-2.77762
2042.99	-3.64325
2043.24	-2.59903
2043.48	4.98618
2043.73	-6.14096
2043.98	7.84628
2044.22	-4.34244
2044.47	-5.39801
2044.71	-1.90433
2044.96	-3.58212
2045.21	7.82016
2045.45	0.670624
2045.7	0.23703
2045.94	2.96979
2046.19	3.57932
2046.43	2.40744
2046.68	8.89606
2046.93	-4.2301
2047.17	0.223999
2047.42	1.04507
2047.66	11.2975
2047.91	-5.46896
2048.15	0.141479
2048.4	2.96588
2048.65	-3.48947
2048.89	-2.49814
2049.14	2.24683
2049.38	-0.449127
2049.63	1.50601
2049.87	-7.7515
2050.12	1.64392
2050.36	-0.20462
2050.61	3.51862
2050.85	-4.94238
2051.1	-7.82788
2051.35	3.35333
2051.59	0.555542
2051.84	3.39316
2052.08	6.21378
2052.33	-4.03067
2052.57	-5.85535
2052.82	-1.12894
2053.07	5.48352
2053.31	-1.86075
2053.56	3.82062
2053.8	1.05798
2054.05	-3.60526
2054.29	-0.804535
2054.54	-2.69174
2054.78	0.0974121
2055.03	-3.71509
2055.27	2.78717
2055.52	-0.96936
2055.77	-0.0630493
2056.01	-3.83832
2056.26	-2.92859
2056.5	0.80249
2056.75	-7.59988
2056.99	-0.102875
2057.24	-1.94037
2057.48	-0.0237122
2057.73	-3.72882
2057.97	0.0864258
2058.22	5.76746
2058.46	5.83231
2058.71	7.75818
2058.95	11.5216
2059.2	-4.38028
2059.44	-7.17139
2059.69	10.5754
2059.94	-0.700165
2060.18	7.66833
2060.43	0.21228
2060.67	-7.2326
2060.91	20.8857
2061.16	8.72928
2061.4	-3.43762
2061.65	-6.24002
2061.9	-0.604858
2062.14	7.85172
2062.39	6.01758
2062.63	2.32303
2062.88	-6.05731
2063.12	5.22638
2063.37	-2.23672
2063.61	0.599426
2063.86	-5.00238
2064.1	1.5882
2064.34	-8.68198
2064.59	0.751617
2064.84	-4.78497
2065.08	-2.82596
2065.33	-5.56866
2065.57	5.75754
2065.82	0.168304
2066.06	-5.4476
2066.31	0.204773
2066.55	4.94119
2066.8	1.20657
2067.04	3.12036
2067.28	2.22775
2067.53	-1.48727
2067.77	-8.03522
2068.02	1.38367
2068.26	-5.16385
2068.51	0.496368
2068.75	-0.483856
2069	-1.50186
2069.24	4.01044
2069.49	4.86758
2069.73	2.06442
2069.98	4.98459
2070.22	3.25909
2070.47	-13.5155
2070.71	8.14255
2070.96	4.28952
2071.2	-3.94894
2071.45	23.5693
2071.69	9.4342
2071.93	6.58057
2072.18	9.39087
2072.42	1.8342
2072.67	3.70703
2072.91	8.4007
2073.16	9.34561
2073.4	1.82349
2073.65	0.895599
2073.89	9.39899
2074.14	12.2761
2074.38	4.81616
2074.63	3.97235
2074.87	12.5856
2075.11	2.36926
2075.36	-3.1748
2075.6	-6.88666
2075.85	-1.20779
2076.09	6.35431
2076.34	11.9923
2076.58	-2.22559
2076.83	-1.35028
2077.07	-5.25458
2077.31	0.346405
2077.56	2.25317
2077.8	-0.515228
2078.05	6.11868
2078.29	4.25571
2078.54	-1.36765
2078.78	6.23914
2079.02	7.3288
2079.27	6.45404
2079.51	11.2296
2079.76	15.0579
2080	-0.961517
2080.25	-0.950226
2080.49	-4.76358
2080.73	2.76929
2080.98	5.58936
2081.22	-1.02545
2081.47	2.73041
2081.71	8.42075
2081.96	-0.0612488
2082.2	2.79074
2082.44	8.46698
2082.69	1.84616
2082.93	8.44666
2083.18	8.42908
2083.42	4.64481
2083.66	4.6496
2083.91	2.75201
2084.15	3.69754
2084.4	15.9903
2084.64	0.873138
2084.88	-1.02292
2085.13	-5.74634
2085.37	8.43265
2085.62	2.83191
2085.86	4.81796
2086.11	12.4682
2086.35	19.1195
2086.59	-3.55356
2086.84	5.0079
2087.08	9.77893
2087.33	1.26035
2087.57	4.10229
2087.81	1.26694
2088.06	2.22391
2088.3	5.077
2088.55	4.14328
2088.79	8.91309
2089.03	-2.3974
2089.28	4.30109
2089.52	-2.28677
2089.76	14.7766
2090.01	-1.30954
2090.25	3.45193
2090.5	4.4295
2090.74	1.61829
2090.98	-1.19492
2091.23	-0.182556
2091.47	4.64423
2091.71	4.73822
2091.96	1.98785
2092.2	5.88608
2092.44	6.92215
2092.69	5.09882
2092.93	0.424622
2093.18	1.44727
2093.42	5.31158
2093.66	1.56525
2093.91	7.29376
2094.15	10.1464
2094.4	-6.98123
2094.64	9.15726
2094.88	3.40524
2095.13	10.95
2095.37	6.14902
2095.61	1.35837
2095.86	3.23047
2096.1	-1.53574
2096.34	-3.4494
2096.59	8.86078
2096.83	-0.697144
2097.07	-3.61047
2097.32	-6.49216
2097.56	-3.66461
2097.8	5.81357
2098.05	0.0700378
2098.29	7.65662
2098.54	8.59723
2098.78	4.78027
2099.02	9.50732
2099.27	7.59918
2099.51	1.90347
2099.75	18.0421
2099.99	6.66693
2100.24	10.4805
2100.48	0.112793
2100.73	4.92212
2100.97	7.81088
2101.21	-2.61615
2101.46	2.13321
2101.7	2.11938
2101.94	5.92081
2102.19	10.6553
2102.43	5.85901
2102.67	3.88974
2102.91	-1.85281
2103.16	11.4309
2103.4	0.962952
2103.64	8.55655
2103.89	3.82712
2104.13	9.56827
2104.38	7.71451
2104.62	-3.64294
2104.86	4.95206
2105.1	4.0668
2105.35	12.6842
2105.59	2.26056
2105.83	10.8463
2106.08	5.15967
2106.32	1.36386
2106.56	-2.4158
2106.81	9.01215
2107.05	20.3892
2107.29	5.12
2107.53	1.24008
2107.78	15.4024
2108.02	10.5658
2108.26	9.5376
2108.51	9.50235
2108.75	2.85715
2108.99	3.86484
2109.24	9.64737
2109.48	2.04926
2109.72	0.147125
2109.96	-1.75574
2110.21	2.9899
2110.45	12.4874
2110.69	6.78281
2110.94	4.86417
2111.18	1.02307
2111.42	-0.916504
2111.66	0.961426
2111.91	5.69965
2112.15	7.61935
2112.39	9.55191
2112.64	7.68253
2112.88	5.84537
2113.12	16.3691
2113.36	9.74921
2113.61	15.4425
2113.85	1.15277
2114.09	1.13864
2114.34	-2.65564
2114.58	4.00476
2114.82	3.04007
2115.06	9.66333
2115.31	12.4857
2115.55	4.85574
2115.79	-1.84937
2116.03	5.68442
2116.28	7.54495
2116.52	9.42383
2116.76	5.60892
2117	0.864044
2117.25	6.53986
2117.49	-1.1059
2117.73	-4.95578
2117.98	5.40891
2118.22	4.3671
2118.46	9.03159
2118.7	0.427307
2118.95	1.30841
2119.19	3.13831
2119.43	-1.6608
2119.67	1.13257
2119.92	5.84494
2120.16	3.95074
2120.4	1.14661
2120.64	3.07294
2120.89	9.76526
2121.13	-2.48898
2121.37	5.1636
2121.61	1.43073
2121.85	6.22974
2122.1	5.32721
2122.34	0.621094
2122.58	5.40067
2122.82	0.678589
2123.07	9.23538
2123.31	-0.278931
2123.55	5.3819
2123.79	1.53467
2124.04	2.40787
2124.28	6.08582
2124.52	7.83386
2124.76	4.84631
2125.01	2.83838
2125.25	0.846069
2125.49	7.37985
2125.73	1.61435
2125.97	9.11539
2126.22	2.42432
2126.46	4.24777
2126.7	1.33688
2126.94	-2.47919
2127.18	-0.608154
2127.43	12.6112
2127.67	-0.661621
2127.91	3.0914
2128.15	-2.58353
2128.4	9.70544
2128.64	1.18643
2128.88	0.213684
2129.12	-1.70267
2129.36	4.89594
2129.61	0.153198
2129.85	5.80225
2130.09	3.88715
2130.33	-3.7034
2130.57	1.92691
2130.82	-0.954071
2131.06	0.88446
2131.3	8.3902
2131.54	2.68839
2131.78	13.041
2132.03	4.48492
2132.27	6.30603
2132.51	-1.28049
2132.75	13.804
2132.99	1.54547
2133.24	16.6543
2133.48	18.544
2133.72	-6.93164
2133.96	2.5188
2134.2	-5.04196
2134.45	-1.27914
2134.69	4.37125
2134.93	9.07321
2135.17	-1.33707
2135.41	4.27332
2135.66	1.35693
2135.9	-4.40216
2136.14	10.6239
2136.38	6.85028
2136.62	4.04016
2136.86	1.21176
2137.11	-0.651184
2137.35	6.00595
2137.59	5.06741
2137.83	6.86536
2138.07	-0.752808
2138.31	3.98077
2138.55	3.13626
2138.8	-1.50473
2139.04	5.00397
2139.28	5.78818
2139.52	-8.40506
2139.76	-3.74329
2140.01	5.63406
2140.25	0.886658
2140.49	7.4505
2140.73	-2.93631
2140.97	0.824066
2141.21	8.31277
2141.45	-1.17944
2141.7	-1.21838
2141.94	2.53964
2142.18	-1.18396
2142.42	8.28265
2142.66	0.00170898
2142.9	-3.78735
2143.14	4.05551
2143.39	-6.49963
2143.63	-3.60062
2143.87	-8.2171
2144.11	1.28885
2144.35	4.17798
2144.59	1.2316
2144.83	4.95993
2145.08	1.22025
2145.32	-3.49548
2145.56	2.11838
2145.8	3.02899
2146.04	-2.63937
2146.28	6.73251
2146.52	7.6394
2146.77	3.83636
2147.01	6.60992
2147.25	7.50726
2147.49	11.2278
2147.73	-3.83954
2147.97	-2.93851
2148.21	3.59314
2148.45	4.48294
2148.69	-3.0896
2148.94	-4.10013
2149.18	-1.405
2149.42	-3.36285
2149.66	14.3687
2149.9	-1.64032
2150.14	10.505
2150.38	1.11716
2150.62	5.81995
2150.87	-3.50876
2151.11	-0.667053
2151.35	4.06589
2151.59	10.6491
2151.83	2.25534
2152.07	3.15356
2152.31	7.79715
2152.55	5.86301
2152.79	-6.38214
2153.04	7.64722
2153.28	5.74463
2153.52	1.94543
2153.76	6.55811
2154	-6.6568
2154.24	0.702271
2154.48	-8.77435
2154.72	4.17514
2154.96	2.20383
2155.2	4.9108
2155.44	1.08777
2155.69	1.95535
2155.93	-3.68958
2156.17	0.963531
2156.41	-11.192
2156.65	-2.79086
2156.89	1.8952
2157.13	-5.54382
2157.37	10.3933
2157.61	2.03738
2157.85	5.78952
2158.09	5.78656
2158.33	8.57642
2158.58	1.07141
2158.82	-2.70538
2159.06	-4.62476
2159.3	-4.68442
2159.54	-2.89178
2159.78	3.56363
2160.02	8.15976
2160.26	5.2919
2160.5	-1.28458
2160.74	-8.7673
2160.98	-5.06265
2161.22	3.29828
2161.46	1.41531
2161.7	-5.12012
2161.94	6.07327
2162.19	20.0612
2162.43	-3.28455
2162.67	-2.39676
2162.91	-0.568268
2163.15	6.85742
2163.39	4.02466
2163.63	-1.60901
2163.87	-5.3934
2164.11	1.04196
2164.35	-2.74295
2164.59	-9.27383
2164.83	0.0801086
2165.07	2.87714
2165.31	-10.1675
2165.55	-2.71216
2165.79	-12.0588
2166.03	13.0592
2166.27	-2.82367
2166.52	-0.0898438
2166.75	0.789337
2166.99	1.65399
2167.24	-4.9523
2167.48	-0.435364
2167.72	-4.29822
2167.96	3.07086
2168.2	-8.10153
2168.44	-2.51404
2168.68	-6.20047
2168.92	-7.07675
2169.16	-8.86145
2169.4	-5.97479
2169.64	6.23651
2169.88	0.727875
2170.12	0.759583
2170.36	6.33279
2170.6	1.62164
2170.84	-0.278259
2171.08	4.27048
2171.32	-0.580688
2171.56	-6.29422
2171.8	-6.36334
2172.04	-0.842987
2172.28	0.0402222
2172.52	-1.83606
2172.76	-9.27701
2173	-8.35522
2173.24	-3.69614
2173.48	14.9213
2173.72	0.0813599
2173.96	5.67172
2174.2	-3.6192
2174.44	-2.69376
2174.68	1.94626
2174.92	0.0670166
2175.16	-9.24857
2175.4	-3.68689
2175.64	7.44626
2175.88	13.9251
2176.12	-1.91992
2176.36	-0.0889282
2176.6	-4.73853
2176.84	-6.59177
2177.08	3.63141
2177.32	4.54938
2177.56	1.77426
2177.8	-1.96225
2178.04	1.67068
2178.28	2.52646
2178.52	-2.13367
2178.76	-2.12238
2179	1.59418
2179.24	-3.04678
2179.48	4.37775
2179.72	-3.05414
2179.96	1.57938
2180.2	1.55823
2180.44	2.46133
2180.68	6.16531
2180.92	-6.84897
2181.16	2.39673
2181.4	-9.71219
2181.64	5.12463
2181.88	-10.6941
2182.12	0.40625
2182.36	10.589
2182.6	-2.46082
2182.84	0.25882
2183.08	-6.32697
2183.32	-1.76276
2183.56	-0.884521
2183.8	3.69534
2184.04	-1.88455
2184.27	10.1622
2184.51	-0.928009
2184.75	8.36105
2184.99	-3.66843
2185.23	-11.0514
2185.47	-7.29993
2185.71	2.02875
2185.95	-1.63794
2186.19	6.79239
2186.43	-3.32306
2186.67	-9.73477
2186.91	-4.07959
2187.15	6.20724
2187.39	1.59079
2187.63	5.27673
2187.87	1.50836
2188.11	-1.3367
2188.35	7.87936
2188.59	5.02072
2188.83	-0.630829
2189.06	6.69299
2189.3	-1.75372
2189.54	2.83807
2189.78	6.52081
2190.02	3.74841
2190.26	4.68732
2190.5	7.50665
2190.74	7.49951
2190.98	-3.61261
2191.22	-3.59079
2191.46	11.2727
2191.7	-0.758484
2191.94	7.61295
2192.18	-4.4216
2192.41	-2.5249
2192.66	-7.10855
2192.89	-9.84979
2193.13	5.06311
2193.37	7.0314
2193.61	-0.244293
2193.85	-1.06726
2194.09	0.851624
2194.33	-3.79654
2194.57	5.45511
2194.81	-4.79865
2195.05	4.44934
2195.29	5.31427
2195.52	-4.05923
2195.76	-9.73282
2196	-0.550598
2196.24	-2.48734
2196.48	-9.97171
2196.72	-13.734
2196.96	-8.21469
2197.2	-0.807648
2197.44	1.98694
2197.68	1.08109
2197.91	-4.422
2198.15	-5.27396
2198.39	5.94855
2198.63	16.2671
2198.87	-5.92993
2199.11	3.45355
2199.35	10.992
2199.59	-3.75177
2199.83	6.64285
2200.06	3.0675
2200.3	31.1353
2200.54	-4.16168
2200.78	6.16241
2201.02	-2.29965
2201.26	-6.30032
2201.5	-4.9978
2201.74	-0.860474
2201.98	4.76184
2202.22	7.15659
2202.45	8.40985
2202.69	-3.77563
2202.93	-4.76773
2203.17	-2.00659
2203.41	8.66669
2203.65	5.40561
2203.89	1.61282
2204.13	3.58694
2204.36	-3.12793
2204.6	-0.607239
2204.84	-2.71664
2205.08	-6.63431
2205.32	2.6091
2205.56	-2.05014
2205.79	-1.98441
2206.03	0.861694
2206.27	2.57361
2206.51	8.16324
2206.75	-6.67078
2206.99	-3.82892
2207.23	6.46332
2207.47	-5.56604
2207.7	-0.850098
2207.94	-4.51163
2208.18	0.198303
2208.42	-2.54987
2208.66	-9.03568
2208.9	-2.49628
2209.14	6.82193
2209.37	0.291565
2209.61	-1.56882
2209.85	-8.05151
2210.09	-5.21677
2210.33	-0.511261
2210.57	7.92444
2210.8	4.24265
2211.04	7.08856
2211.28	7.15012
2211.52	3.49341
2211.76	0.738983
2212	6.37164
2212.23	3.55359
2212.47	10.9861
2212.71	7.22104
2212.95	-6.80264
2213.19	-6.87079
2213.43	8.05157
2213.66	3.44482
2213.9	1.68234
2214.14	1.82974
2214.38	-0.936951
2214.62	3.75775
2214.86	1.91135
2215.09	1.92615
2215.33	4.73575
2215.57	3.80447
2215.81	-1.80106
2216.05	0.0582275
2216.28	-1.82147
2216.52	5.63248
2216.76	-3.70621
2217	0.970215
2217.24	8.45471
2217.48	3.78961
2217.71	6.5838
2217.95	8.46066
2218.19	-5.51828
2218.43	2.92648
2218.67	-0.758301
2218.9	11.4442
2219.14	-6.26685
2219.38	-4.36752
2219.62	0.342865
2219.86	-9.93814
2220.09	2.19534
2220.33	9.66196
2220.57	8.7016
2220.81	0.228607
2221.05	4.81415
2221.28	2.87643
2221.52	7.48508
2221.76	-8.4288
2222	-3.77563
2222.24	3.7085
2222.47	7.48419
2222.71	-0.872498
2222.95	1.04358
2223.19	7.65057
2223.42	-5.34308
2223.66	7.83505
2223.9	8.86139
2224.14	0.524048
2224.38	-4.08481
2224.61	2.52969
2224.85	-7.69223
2225.09	3.62476
2225.33	2.76321
2225.57	0.952881
2225.8	3.82922
2226.04	2.00833
2226.28	12.376
2226.52	6.81775
2226.75	-0.631165
2226.99	-2.46689
2227.23	-4.3186
2227.47	7.87137
2227.71	5.9747
2227.94	-1.54919
2228.18	3.11853
2228.42	-2.5235
2228.66	-5.35126
2228.89	4.01956
2229.13	8.74808
2229.37	2.26166
2229.61	5.15295
2229.84	10.8425
2230.08	5.27029
2230.32	-4.05313
2230.56	8.21609
2230.79	-1.10272
2231.03	4.6069
2231.27	6.54974
2231.51	7.5509
2231.74	4.79321
2231.98	8.6149
2232.22	0.2117
2232.46	4.97189
2232.69	8.7916
2232.93	6.02664
2233.17	2.32101
2233.41	-5.16077
2233.64	6.17056
2233.88	1.45935
2234.12	2.37711
2234.36	7.99054
2234.59	1.35336
2234.83	7.84174
2235.07	9.63635
2235.3	6.80588
2235.54	2.11838
2235.78	15.3015
2236.02	1.21317
2236.25	8.75204
2236.49	1.24408
2236.73	0.365143
2236.96	7.96024
2237.2	4.3046
2237.44	-2.15982
2237.68	-2.98395
2237.91	16.897
2238.15	-1.87109
2238.39	-1.78061
2238.63	1.15656
2238.86	0.257721
2239.1	4.95642
2239.34	7.7457
2239.57	-0.812042
2239.81	8.52902
2240.05	-0.933899
2240.28	11.3989
2240.52	5.90543
2240.76	17.2493
2241	2.17432
2241.23	1.25491
2241.47	7.88379
2241.71	4.1337
2241.95	4.16913
2242.18	6.09509
2242.42	5.17041
2242.66	5.15872
2242.89	-0.534546
2243.13	19.2374
2243.37	8.82883
2243.6	-0.617279
2243.84	2.22086
2244.08	-1.5148
2244.31	0.455536
2244.55	-4.14734
2244.79	-2.14105
2245.02	7.39038
2245.26	2.72595
2245.5	1.84592
2245.74	7.58496
2245.97	12.3716
2246.21	7.6799
2246.45	13.3985
2246.68	1.15018
2246.92	2.13214
2247.16	6.88373
2247.39	4.99203
2247.63	0.24762
2247.87	3.0701
2248.1	-1.6785
2248.34	2.09134
2248.58	-1.70828
2248.81	0.172363
2249.05	15.3511
2249.29	10.6712
2249.52	14.4626
2249.76	1.1825
2250	-0.763794
2250.23	5.79843
2250.47	5.72952
2250.71	-0.949493
2250.94	6.57227
2251.18	4.65991
2251.42	13.1779
2251.65	-1.91818
2251.89	8.53128
2252.13	3.86404
2252.36	10.579
2252.6	3.16284
2252.84	4.24557
2253.07	-4.18604
2253.31	-4.10922
2253.54	-1.20587
2253.78	18.7615
2254.02	0.797699
2254.25	5.55396
2254.49	5.5332
2254.73	4.59048
2254.96	15.0308
2255.2	10.3003
2255.44	15.058
2255.67	7.51813
2255.91	-2.85425
2256.15	-7.54266
2256.38	8.63998
2256.62	3.94901
2256.86	1.15442
2257.09	17.3445
2257.33	7.89032
2257.56	7.91397
2257.8	5.08173
2258.04	1.30447
2258.27	-1.51462
2258.51	14.6769
2258.75	-5.22437
2258.98	4.31253
2259.22	5.29166
2259.45	5.32791
2259.69	11.0674
2259.93	11.1018
2260.16	7.33173
2260.4	13.0837
2260.63	0.811859
2260.87	14.2063
2261.11	-1.94028
2261.34	-0.0177612
2261.58	1.91266
2261.82	3.845
2262.05	1.03268
2262.29	-1.7605
2262.52	9.73605
2262.76	9.81921
2263	6.10495
2263.23	2.40109
2263.47	11.1037
2263.7	8.36517
2263.94	8.47842
2264.18	2.84894
2264.41	-2.80029
2264.65	6.81683
2264.88	4.96625
2265.12	1.16782
2265.36	6.91446
2265.59	10.7215
2265.83	1.11429
2266.06	3.91119
2266.3	-0.933044
2266.54	7.59137
2266.77	-1.04718
2267.01	-4.90588
2267.24	3.63678
2267.48	1.66809
2267.72	3.52426
2267.95	3.50284
2268.19	4.46411
2268.42	2.59705
2268.66	6.47644
2268.9	8.46783
2269.13	6.64969
2269.37	0.062561
2269.6	10.6737
2269.84	14.6006
2270.07	7.02829
2270.31	0.383179
2270.55	4.27304
2270.78	15.8068
2271.02	1.51108
2271.25	8.25021
2271.49	12.1393
2271.72	4.52765
2271.96	9.32401
2272.19	4.55786
2272.43	9.36179
2272.67	7.47034
2272.9	3.66348
2273.14	11.3398
2273.37	8.49005
2273.61	2.7681
2273.84	13.3144
2274.08	8.54919
2274.32	-6.74557
2274.55	7.63577
2274.79	-4.78522
2275.02	10.5597
2275.26	3.85104
2275.49	18.2551
2275.73	3.0087
2275.96	8.83694
2276.2	4.12012
2276.44	6.104
2276.67	5.21478
2276.91	5.31647
2277.14	10.2306
2277.38	4.59641
2277.61	7.62134
2277.85	1.92017
2278.08	5.79337
2278.32	0.0420227
2278.55	0.997437
2278.79	10.5898
2279.02	6.71194
2279.26	2.73785
2279.49	10.3248
2279.73	-3.18661
2279.97	4.4183
2280.2	-1.39255
2280.44	8.15274
2280.67	3.33377
2280.91	-2.45105
2281.14	9.01556
2281.38	5.21954
2281.61	4.28516
2281.85	4.33044
2282.08	12.065
2282.32	12.1432
2282.55	7.42203
2282.79	6.54996
2283.02	1.87024
2283.26	0.0997009
2283.49	-5.53735
2283.73	8.07468
2283.96	8.17606
2284.2	2.44086
2284.43	4.43787
2284.67	-5.10071
2284.9	11.2876
2285.14	0.728546
2285.37	3.5722
2285.61	-4.2558
2285.84	8.23605
2286.08	-0.393738
2286.31	3.48767
2286.55	10.3746
2286.78	0.888611
2287.02	5.76184
2287.25	3.85739
2287.49	0.115723
2287.73	2.03137
2287.96	13.5498
2288.19	3.87686
2288.43	5.76059
2288.66	9.52884
2288.9	9.41208
2289.13	3.55008
2289.37	18.7934
2289.6	13.9453
2289.84	12.9493
2290.07	11.0341
2290.31	5.27078
2290.54	10.1223
2290.78	10.2035
2291.01	-4.11154
2291.25	8.47607
2291.48	-1.08884
2291.72	10.5207
2291.95	2.87967
2292.19	-1.85696
2292.42	-3.70822
2292.66	8.87665
2292.89	9.89493
2293.13	20.5383
2293.36	0.331604
2293.59	4.17261
2293.83	3.17969
2294.06	-0.712128
2294.3	2.12299
2294.53	-0.804565
2294.77	7.82779
2295	2.97507
2295.24	-2.84058
2295.47	5.79443
2295.71	6.71402
2295.94	0.796844
2296.18	7.51047
2296.41	1.76575
2296.64	-6.84787
2296.88	-1.01501
2297.11	5.79596
2297.35	0.104462
2297.58	4.07339
2297.82	3.19052
2298.05	5.16544
2298.29	0.408112
2298.52	-0.470337
2298.76	-1.35992
2298.99	17.0266
2299.22	4.53607
2299.46	12.2499
2299.69	-2.20499
2299.93	4.53741
2300.16	14.2205
2300.4	2.70618
2300.63	4.68198
2300.86	3.7605
2301.1	5.72113
2301.33	-1.98505
2301.57	24.0777
2301.8	5.71902
2302.04	4.73065
2302.27	3.78122
2302.5	11.5062
2302.74	-0.0886536
2302.97	10.5278
2303.21	-2.97464
2303.44	8.63763
2303.68	-2.88745
2303.91	13.5843
2304.14	2.03934
2304.38	-0.812653
2304.61	8.91302
2304.85	-6.49481
2305.08	11.8817
2305.32	10.9464
2305.55	2.29239
2305.78	2.34375
2306.02	-1.50168
2306.25	4.31357
2306.49	3.35019
2306.72	11.0817
2306.96	3.3335
2307.19	9.09668
2307.42	-6.38187
2307.66	10.0283
2307.89	0.33902
2308.12	3.24567
2308.36	4.22363
2308.59	10.0737
2308.83	3.3674
2309.06	6.34201
2309.29	-4.18643
2309.53	-0.238312
2309.76	0.770355
2310	6.59305
2310.23	6.59579
2310.46	1.73816
2310.7	4.58728
2310.93	4.44882
2311.17	3.26385
2311.4	10.8883
2311.63	0.18454
2311.87	3.04648
2312.1	3.96466
2312.33	9.716
2312.57	1.0271
2312.8	4.92307
2313.04	4.04358
2313.27	10.9377
2313.5	3.3121
2313.74	4.37408
2313.97	-1.32278
2314.2	2.65573
2314.44	6.65103
2314.67	7.68164
2314.91	5.70285
2315.14	1.75558
2315.38	3.63525
2315.61	5.49878
2315.84	4.39093
2316.08	-2.4729
2316.31	6.18011
2316.54	0.380035
2316.78	13.9195
2317.01	-0.539246
2317.24	12.091
2317.48	-0.393463
2317.71	4.37427
2317.95	7.20636
2318.18	-0.547028
2318.41	1.34464
2318.65	-0.628174
2318.88	-0.666046
2319.11	6.06155
2319.34	2.18533
2319.58	9.90897
2319.81	11.8554
2320.05	9.93405
2320.28	12.8589
2320.51	9.05212
2320.75	9.11148
2320.98	4.34909
2321.21	10.2165
2321.45	10.3091
2321.68	18.1446
2321.91	14.3744
2322.15	19.2591
2322.38	18.2943
2322.61	18.3085
2322.85	24.142
2323.08	16.436
2323.31	12.5979
2323.55	14.5532
2323.78	22.2885
2324.01	28.0826
2324.25	23.1923
2324.48	32.7656
2324.71	23.9631
2324.95	37.4074
2325.18	49.9027
2325.41	35.3599
2325.65	32.4038
2325.88	63.2235
2326.11	76.6611
2326.35	78.5171
2326.58	97.7327
2326.81	86.0812
2327.05	107.235
2327.28	186.222
2327.51	250.744
2327.75	344.255
2327.98	487.896
2328.21	657.564
2328.45	777.9
2328.68	700.604
2328.91	522.154
2329.14	314.967
2329.38	218.635
2329.61	150.303
2329.84	122.372
2330.08	87.6691
2330.31	50.0848
2330.54	34.6686
2330.77	36.6202
2331.01	31.8589
2331.24	35.7767
2331.47	11.7729
2331.71	21.3668
2331.94	21.2981
2332.17	24.1493
2332.41	7.74341
2332.64	6.74844
2332.87	3.83014
2333.11	10.5427
2333.34	4.74686
2333.57	5.67944
2333.8	10.4495
2334.04	-0.198029
2334.27	12.2609
2334.5	7.42795
2334.73	3.57581
2334.97	-3.16098
2335.2	4.54648
2335.43	10.3473
2335.67	-0.224884
2335.9	9.37244
2336.13	9.3587
2336.36	3.58499
2336.6	5.50562
2336.83	10.308
2337.06	-3.15561
2337.29	5.48383
2337.53	4.50934
2337.76	10.2713
2337.99	0.654724
2338.23	9.3046
2338.46	3.55478
2338.69	3.57391
2338.92	-2.18295
2339.16	1.66388
2339.39	8.38022
2339.62	10.2764
2339.85	6.39291
2340.09	10.1927
2340.32	11.0979
2340.55	-2.41943
2340.78	5.17609
2341.02	4.11362
2341.25	1.15189
2341.48	11.6515
2341.71	2.02005
2341.95	5.81833
2342.18	8.66803
2342.41	1.94641
2342.64	5.78314
2342.88	2.91943
2343.11	1.96115
2343.34	0.999573
2343.57	16.3478
2343.81	3.91516
2344.04	27.9056
2344.27	-0.848358
2344.5	5.85455
2344.74	3.9183
2344.97	-5.7009
2345.2	2.86139
2345.43	7.60034
2345.67	2.76535
2345.9	9.45029
2346.13	2.74075
2346.36	4.65128
2346.59	8.46771
2346.83	-1.12088
2347.06	-2.07693
2347.29	1.7684
2347.52	-5.86349
2347.76	0.882568
2347.99	-5.7825
2348.22	5.7244
2348.45	-1.94907
2348.68	0.888458
2348.92	9.40088
2349.15	-3.15891
2349.38	1.48843
2349.61	-4.40942
2349.85	-2.69516
2350.08	-2.08438
2350.31	-1.70856
2350.54	9.97458
2350.77	8.10303
2351.01	5.72415
2351.24	-3.32022
2351.47	-4.67709
2351.7	2.93484
2351.93	0.126923
2352.17	-1.9093
2352.4	9.2821
2352.63	4.2981
2352.86	6.23557
2353.09	7.20227
2353.33	14.7774
2353.56	-1.41141
2353.79	6.2132
2354.02	-6.10474
2354.25	6.3848
2354.49	-1.23398
2354.72	4.47763
2354.95	5.41537
2355.18	-4.12741
2355.41	-4.14801
2355.65	2.48511
2355.88	-0.443237
2356.11	6.08643
2356.34	2.16473
2356.57	0.210693
2356.8	2.07275
2357.04	-10.3255
2357.27	-0.850555
2357.5	-0.8797
2357.73	-7.55981
2357.96	13.3511
2358.2	-0.0142822
2358.43	2.81628
2358.66	-0.994873
2358.89	-4.79584
2359.12	1.83218
2359.35	2.74582
2359.59	-0.15448
2359.82	-2.10977
2360.05	-0.268402
2360.28	-5.06866
2360.51	-6.0737
2360.75	1.45453
2360.98	-7.14059
2361.21	1.32965
2361.44	0.31778
2361.67	0.246155
2361.9	-0.770081
2362.13	0.120636
2362.37	-3.71512
2362.6	5.70911
2362.83	-0.00579834
2363.06	0.917114
2363.29	-2.88791
2363.52	7.4986
2363.76	-2.93826
2363.99	-6.75073
2364.22	2.6687
2364.45	-2.06836
2364.68	-1.17133
2364.91	2.57858
