#Acq. time (s)=	40
#Accumulations=	2
#Range (cm-¹)=	1200...2365
#Windows=	3
#Auto scanning=	Off
#Autofocus=	Off
#Macrospot=	Off
#AutoExposure=	Off
#Spike filter=	Multiple accum.
#Delay time (s)=	2
#Binning=	1
#Readout mode=	Signal
#DeNoise=	Off
#ICS correction=	On
#Dark correction=	Off
#Inst. Process=	Off
#Detector Gain=	Best Dynamic
#Detector ADC=	50 kHz EM
#Detector EM gain=	400
#Detector temperature (°C)=	-60.09
#Instrument=	LabRAM HR Evol
#Detector=	SIN-EM FIVIS
#Objective=	x100_VIS_LWD
#Grating=	1800 (450-850nm)
#ND Filter=	100%
#Laser=	532nm_Edge
#Hole=	30.0125
#Temperature=	0
#Range=	Visible
#StageXY=	75x50mm Scan+
#StageZ=	Z motor
#X (µm)=	0
#Y (µm)=	0
#Z (µm)=	3.9
#Full time(mm:ss)=	4:22
#Project=	21_11_26
#Sample=	BU32
#Site=	
#Title=	BU32-A-incC-FI01-V_1800 (450-850nm)_532nm_Edge_100%_x100_VIS_LWD_H30um_40sX2
#Remark=	
#Date=	26.11.2021 17:46
#Acquired=	26.11.2021 17:46:55
#Base:Fit=	16.12.2021 14:32:51
#Base:Fit=	16.12.2021 14:32:55
#Base:Edit=	16.12.2021 14:33:03
#Base:Edit=	16.12.2021 14:33:05
#Base:Sub=	16.12.2021 14:33:08
1202.72	-3.19522
1203	-10.8172
1203.28	19.8381
1203.56	-1.6355
1203.84	15.5745
1204.11	-27.3314
1204.39	-1.37015
1204.67	2.19891
1204.95	1.49554
1205.23	-7.95044
1205.5	22.281
1205.78	-11.9745
1206.06	43.9511
1206.34	-13.9291
1206.61	8.68732
1206.89	20.5574
1207.17	12.0547
1207.45	5.73474
1207.73	-15.5169
1208	13.5618
1208.28	-2.29599
1208.56	22.4969
1208.84	15.1336
1209.11	-24.3043
1209.39	25.0351
1209.67	-0.427216
1209.95	-6.60837
1210.23	18.1877
1210.5	-25.483
1210.78	26.9351
1211.06	-7.18872
1211.34	12.1227
1211.61	-2.75717
1211.89	-9.06143
1212.17	35.7813
1212.45	-16.4167
1212.72	22.0536
1213	20.0034
1213.28	34.9892
1213.56	-7.49377
1213.83	1.17532
1214.11	-4.03806
1214.39	-21.9157
1214.67	-0.410889
1214.94	8.30569
1215.22	-11.7359
1215.5	12.9213
1215.78	19.4706
1216.05	24.9377
1216.33	-15.4413
1216.61	22.8828
1216.89	15.4145
1217.16	7.96494
1217.44	14.3725
1217.72	-33.3945
1218	3.82233
1218.27	-7.79892
1218.55	23.0473
1218.83	11.4319
1219.1	-6.50803
1219.38	33.9337
1219.66	-8.40286
1219.94	-14.6765
1220.21	-4.00137
1220.49	8.85269
1220.77	-2.67508
1221.04	5.92105
1221.32	-4.59506
1221.6	23.0266
1221.88	9.29172
1222.15	0.811035
1222.43	21.9532
1222.71	29.279
1222.98	25.9919
1223.26	38.5854
1223.54	30.0271
1223.81	-1.76077
1224.09	18.2743
1224.37	-17.6869
1224.65	42.5075
1224.92	17.1832
1225.2	-12.3315
1225.48	-30.1877
1225.76	36.4697
1226.03	-18.2863
1226.31	13.5407
1226.59	35.782
1226.86	-23.2865
1227.14	-16.9409
1227.42	16.8491
1227.69	17.758
1227.97	35.326
1228.25	-2.79086
1228.52	12.8339
1228.8	19.852
1229.08	-9.83902
1229.35	-14.001
1229.63	8.17041
1229.91	10.2312
1230.18	9.88541
1230.46	22.1803
1230.74	8.39413
1231.01	21.1473
1231.29	25.1559
1231.57	5.41107
1231.84	-1.80493
1232.12	29.7703
1232.4	27.7103
1232.67	16.1541
1232.95	-14.2707
1233.23	6.77008
1233.5	-14.2303
1233.78	-8.93866
1234.06	-3.61444
1234.33	16.433
1234.61	13.3716
1234.89	19.7863
1235.16	7.29166
1235.44	19.9818
1235.71	-10.4209
1235.99	31.7237
1236.27	1.30847
1236.54	20.2635
1236.82	-21.8078
1237.1	-1.8663
1237.37	-9.28256
1237.65	-3.08884
1237.93	2.04022
1238.2	12.4141
1238.48	30.1231
1238.76	-3.58316
1239.03	-4.72336
1239.31	-17.3542
1239.58	-26.8217
1239.86	-36.2749
1240.14	-0.63858
1240.41	-11.1133
1240.69	25.5918
1240.97	-23.6425
1241.24	31.9555
1241.52	0.540558
1241.79	25.6755
1242.07	22.4644
1242.35	28.715
1242.62	-2.70078
1242.9	9.91425
1243.18	18.3734
1243.45	0.623352
1243.73	23.6895
1244	9.02695
1244.28	10.1129
1244.56	-34.9628
1244.83	11.142
1245.11	-22.4361
1245.39	-6.79965
1245.66	-8.99652
1245.94	7.61868
1246.21	-2.99286
1246.49	13.6982
1246.76	-9.36307
1247.04	5.2944
1247.32	-5.181
1247.59	-4.17047
1247.87	-19.879
1248.14	-32.4827
1248.42	-9.6178
1248.7	43.6386
1248.97	-12.8636
1249.25	-29.5768
1249.52	24.8395
1249.8	-1.34409
1250.08	-6.59344
1250.35	-0.319641
1250.63	7.94904
1250.9	14.1009
1251.18	5.63272
1251.45	8.67349
1251.73	-4.99432
1252.01	-21.7908
1252.28	9.45721
1252.56	17.7199
1252.83	7.18536
1253.11	16.4759
1253.39	-32.6703
1253.66	-7.67746
1253.94	-6.64487
1254.21	6.97739
1254.49	1.82703
1254.76	35.3176
1255.04	7.14999
1255.31	23.8424
1255.59	5.06616
1255.87	-0.170837
1256.14	-0.207397
1256.42	8.15024
1256.69	-9.58536
1256.97	-6.40726
1257.24	6.13092
1257.52	-0.176117
1257.79	-5.47662
1258.07	-11.7978
1258.35	10.0798
1258.62	6.89233
1258.9	7.8685
1259.17	-8.95303
1259.45	18.1536
1259.72	9.8356
1260	-12.0429
1260.27	16.3082
1260.55	-1.57693
1260.82	21.265
1261.1	11.6904
1261.37	47.0326
1261.65	7.29758
1261.92	0.0350952
1262.2	6.66083
1262.48	5.11932
1262.75	23.1563
1263.02	12.9941
1263.3	-8.42432
1263.58	45.5832
1263.85	9.49478
1264.13	21.2988
1264.4	29.0196
1264.68	65.8394
1264.95	41.462
1265.23	46.5493
1265.5	48.616
1265.78	26.6058
1266.05	22.3209
1266.33	50.5068
1266.6	1.40634
1266.88	-0.648743
1267.15	15.0877
1267.43	1.57614
1267.7	40.3632
1267.98	-8.68954
1268.25	-26.3638
1268.53	14.6219
1268.8	-13.5164
1269.08	-10.3152
1269.35	8.58795
1269.63	-8.14465
1269.9	0.188843
1270.18	0.0711365
1270.45	4.10553
1270.73	6.08398
1271	27.9369
1271.28	2.7182
1271.55	-4.65897
1271.83	-14.1553
1272.1	2.59583
1272.38	1.62677
1272.65	-19.2125
1272.93	-10.6987
1273.2	0.911652
1273.47	3.09851
1273.75	-2.0484
1274.03	-21.8784
1274.3	-20.7436
1274.57	32.7961
1274.85	28.6002
1275.12	-23.8856
1275.4	4.41504
1275.67	21.2261
1275.95	3.44226
1276.22	23.4357
1276.5	-12.164
1276.77	-3.71002
1277.05	2.65195
1277.32	23.6958
1277.6	30.0898
1277.87	-1.33936
1278.14	14.5073
1278.42	-8.54941
1278.69	24.1017
1278.97	-3.1311
1279.24	20.0591
1279.52	-1.97845
1279.79	4.29028
1280.07	6.33997
1280.34	14.6829
1280.61	20.9575
1280.89	12.5601
1281.16	-6.34973
1281.44	13.7293
1281.71	-33.5112
1281.99	-8.21146
1282.26	9.65598
1282.53	0.205994
1282.81	21.2947
1283.08	-11.4299
1283.36	24.12
1283.63	12.1421
1283.91	78.1657
1284.18	108.611
1284.45	183.529
1284.73	398.653
1285	751.787
1285.28	693.797
1285.55	362.532
1285.83	192.738
1286.1	65.3397
1286.37	55.9559
1286.65	20.1329
1286.92	23.1942
1287.2	2.11728
1287.47	22.0811
1287.75	6.21237
1288.02	-6.50696
1288.29	0.802002
1288.57	16.5708
1288.84	15.5193
1289.12	8.17273
1289.39	-8.61438
1289.66	-14.8664
1289.94	8.36615
1290.21	11.6073
1290.49	1.13992
1290.76	10.6091
1291.03	14.765
1291.31	19.9972
1291.58	-18.9877
1291.86	-3.20242
1292.13	8.35834
1292.4	3.08835
1292.68	-5.31714
1292.95	20.981
1293.22	1.98251
1293.5	-16.9592
1293.77	-16.8306
1294.05	-2.96432
1294.32	6.70166
1294.59	18.3472
1294.87	-5.91083
1295.14	30.9607
1295.42	18.3838
1295.69	-3.58783
1295.96	20.9224
1296.24	-1.9996
1296.51	-9.22281
1296.79	13.0153
1297.06	-6.00168
1297.33	20.3728
1297.61	9.72549
1297.88	7.5213
1298.15	-5.2551
1298.43	7.30374
1298.7	17.9159
1298.97	-7.46512
1299.25	13.5821
1299.52	0.853149
1299.79	34.5625
1300.07	21.8917
1300.34	-5.47665
1300.62	15.6857
1300.89	-8.58527
1301.16	9.34656
1301.44	-0.169525
1301.71	31.5305
1301.98	-12.7417
1302.25	25.3506
1302.53	10.6055
1302.8	5.34103
1303.08	-12.6177
1303.35	17.9914
1303.62	-3.17538
1303.9	31.5997
1304.17	-30.7101
1304.44	-0.0726624
1304.72	-3.23297
1304.99	7.3277
1305.26	-0.109375
1305.54	24.1018
1305.81	14.5079
1306.08	-23.5693
1306.35	2.71249
1306.63	1.58093
1306.9	5.77026
1307.18	9.9967
1307.45	-13.158
1307.72	11.1235
1308	-14.1857
1308.27	10.0805
1308.54	12.225
1308.81	11.1552
1309.09	-17.2879
1309.36	-11.9361
1309.63	10.2926
1309.91	21.9772
1310.18	3.03641
1310.45	3.03842
1310.73	7.24554
1311	-23.3428
1311.27	-10.6472
1311.55	-6.3884
1311.82	30.586
1312.09	-8.41489
1312.37	-24.1618
1312.64	26.5948
1312.91	13.9716
1313.18	-15.5959
1313.46	18.1387
1313.73	31.8644
1314	-2.99429
1314.28	-0.896454
1314.55	17.065
1314.82	30.8329
1315.09	-4.99591
1315.37	27.8072
1315.64	3.5946
1315.91	-6.88931
1316.18	-7.87
1316.46	-14.2045
1316.73	6.9126
1317	-13.1505
1317.28	-2.57993
1317.55	-5.72681
1317.82	9.14313
1318.09	-20.3685
1318.37	10.3159
1318.64	-7.60263
1318.91	6.16452
1319.18	23.0936
1319.46	-29.7174
1319.73	5.15195
1320	-5.40283
1320.28	15.7796
1320.55	16.8669
1320.82	7.36041
1321.09	9.43567
1321.37	-9.64447
1321.64	28.2692
1321.91	-0.344025
1322.18	-19.3879
1322.46	-14.2019
1322.73	21.6316
1323	15.2691
1323.27	39.4844
1323.55	-11.1824
1323.82	0.493073
1324.09	-10.0033
1324.36	4.79581
1324.64	-23.6574
1324.91	-16.2398
1325.18	-14.1125
1325.45	-25.6548
1325.73	4.84521
1326	-18.5013
1326.27	-18.7056
1326.54	26.2883
1326.81	12.5099
1327.09	9.3526
1327.36	-8.35922
1327.63	8.7999
1327.9	-7.86703
1328.18	10.2292
1328.45	-21.1938
1328.72	16.9662
1328.99	11.8673
1329.27	18.274
1329.54	-8.12006
1329.81	4.62033
1330.08	3.58218
1330.35	10.9673
1330.63	4.61758
1330.9	15.1205
1331.17	21.3779
1331.44	-8.23273
1331.71	29.5728
1331.99	7.29337
1332.26	9.28629
1332.53	21.8328
1332.8	-20.3541
1333.07	8.99597
1333.35	34.115
1333.62	-1.73605
1333.89	-9.18219
1334.16	18.0513
1334.43	-10.3893
1334.71	-2.05963
1334.98	22.0204
1335.25	-4.27106
1335.52	-4.31241
1335.79	-5.40039
1336.07	-3.33554
1336.34	-3.36484
1336.61	-21.2127
1336.88	-4.45038
1337.15	10.2195
1337.43	35.3782
1337.7	-6.54456
1337.97	-17.0284
1338.24	39.4939
1338.51	-4.56744
1338.78	17.4097
1339.06	25.7574
1339.33	22.6111
1339.6	-14.006
1339.87	6.99646
1340.14	-19.1143
1340.42	22.8277
1340.69	29.1735
1340.96	-0.0899658
1341.23	0.994293
1341.5	-1.07343
1341.77	16.7438
1342.04	-3.15283
1342.32	12.5288
1342.59	-9.49838
1342.86	5.08719
1343.13	22.8051
1343.4	2.91702
1343.67	-24.2607
1343.95	9.24039
1344.22	-21.0446
1344.49	19.7994
1344.76	7.29764
1345.03	26.1303
1345.3	22.9684
1345.58	-9.4895
1345.85	13.419
1346.12	-3.35873
1346.39	6.99173
1346.66	15.1776
1346.93	1.52011
1347.2	13.9613
1347.47	-20.5423
1347.75	1.29156
1348.02	30.4531
1348.29	12.726
1348.56	11.6966
1348.83	-29.9709
1349.1	3.36301
1349.37	-1.87393
1349.65	-28.987
1349.92	31.3951
1350.19	23.0349
1350.46	1.14594
1350.73	18.8151
1351	5.23126
1351.27	-10.43
1351.54	-23.9672
1351.81	-1.13849
1352.09	5.12161
1352.36	-12.5092
1352.63	5.27158
1352.9	6.45828
1353.17	22.2513
1353.44	-6.76196
1353.71	3.02017
1353.98	-0.697815
1354.25	7.29132
1354.53	0.46051
1354.8	5.27533
1355.07	4.33917
1355.34	-16.3524
1355.61	-5.01318
1355.88	7.42892
1356.15	10.7476
1356.42	8.75989
1356.69	-8.93634
1356.96	-0.611511
1357.24	-5.78479
1357.51	21.2315
1357.78	-15.1127
1358.05	-14.0813
1358.32	9.77969
1358.59	-5.80939
1358.86	26.345
1359.13	29.4232
1359.4	8.64807
1359.67	10.7179
1359.94	22.127
1360.22	11.7026
1360.49	19.9232
1360.76	21.93
1361.03	5.32974
1361.3	-18.471
1361.57	-18.4189
1361.84	4.41171
1362.11	15.8391
1362.38	9.63193
1362.65	9.64441
1362.92	21.0506
1363.19	17.9883
1363.46	-1.59845
1363.73	-8.71622
1364	20.3961
1364.28	20.5108
1364.55	26.7807
1364.82	9.20181
1365.09	-5.28403
1365.36	12.3052
1365.63	19.5158
1365.9	-19.8605
1366.17	-18.8566
1366.44	-3.36789
1366.71	2.79999
1366.98	-8.63678
1367.25	14.0225
1367.52	-1.48773
1367.79	18.1672
1368.06	3.8157
1368.33	20.4479
1368.6	5.03018
1368.87	-3.15274
1369.15	5.20404
1369.41	-0.90329
1369.68	-14.255
1369.95	17.8077
1370.23	33.3257
1370.5	-1.80856
1370.77	-0.822327
1371.04	35.3484
1371.31	18.7976
1371.58	-20.5082
1371.85	10.3933
1372.12	-1.0672
1372.39	1.92972
1372.66	9.06345
1372.93	-9.54575
1373.2	-35.3244
1373.47	14.1602
1373.74	9.01517
1374.01	5.94183
1374.28	23.4848
1374.55	-11.5148
1374.82	32.8216
1375.09	29.7585
1375.36	34.9147
1375.63	-11.3583
1375.9	8.32959
1376.17	20.7443
1376.44	18.7718
1376.71	14.6028
1376.98	8.38135
1377.25	5.21402
1377.52	11.2751
1377.79	11.3923
1378.06	22.8885
1378.33	13.8589
1378.6	-0.287994
1378.87	-1.02551
1379.14	10.4492
1379.41	-17.34
1379.68	16.6887
1379.95	3.29077
1380.22	33.1508
1380.49	-11.272
1380.76	23.4573
1381.03	9.94333
1381.3	4.70499
1381.57	17.1808
1381.84	0.679108
1382.11	-7.6745
1382.38	10.6765
1382.65	11.5874
1382.92	9.44174
1383.19	17.5507
1383.46	-10.2055
1383.73	30.7605
1384	20.491
1384.27	2.03857
1384.54	25.6972
1384.81	39.1289
1385.08	2.35669
1385.34	26.1291
1385.61	35.6021
1385.88	34.7597
1386.15	42.1099
1386.42	54.5566
1386.69	54.7169
1386.96	50.7168
1387.23	130.891
1387.5	192.098
1387.77	542.342
1388.04	1217.76
1388.31	1247.54
1388.58	607.988
1388.85	232.506
1389.12	104.075
1389.39	41.8365
1389.66	40.9098
1389.93	24.5971
1390.2	49.1501
1390.46	35.5163
1390.73	15.9328
1391	28.2857
1391.27	-13.8543
1391.54	34.343
1391.81	30.2666
1392.08	0.516876
1392.35	-2.60025
1392.62	5.56381
1392.89	4.53232
1393.16	11.7044
1393.43	7.62436
1393.7	8.66885
1393.97	-8.70493
1394.23	-0.488007
1394.5	18.989
1394.77	21.0721
1395.04	23.1645
1395.31	2.80899
1395.58	-16.5037
1395.85	26.598
1396.12	24.6354
1396.39	5.23636
1396.66	9.35837
1396.93	3.23102
1397.2	-14.1551
1397.46	-15.1905
1397.73	15.4864
1398	-1.87921
1398.27	28.8637
1398.54	8.49918
1398.81	5.54324
1399.08	1.54321
1399.35	34.3685
1399.62	9.94821
1399.89	-7.34103
1400.16	-9.28619
1400.42	17.3843
1400.69	-9.10791
1400.96	-7.91919
1401.23	8.57642
1401.5	14.7672
1401.77	-13.7944
1402.04	18.013
1402.31	-17.6351
1402.58	14.428
1402.84	-0.633392
1403.11	0.637573
1403.38	-4.30032
1403.65	-2.12228
1403.92	28.7435
1404.19	-18.5009
1404.46	-2.24646
1404.73	13.2668
1404.99	4.05768
1405.26	-22.6006
1405.53	5.08493
1405.8	15.3237
1406.07	1.98181
1406.34	3.00223
1406.61	-17.4798
1406.87	0.999054
1407.14	0.0549927
1407.41	-7.02899
1407.68	3.31854
1407.95	38.2625
1408.22	33.2241
1408.49	25.1086
1408.76	41.6022
1409.02	39.646
1409.29	68.4649
1409.56	108.567
1409.83	91.2317
1410.1	49.2624
1410.37	42.1441
1410.63	35.9623
1410.9	27.6977
1411.17	44.0233
1411.44	13.2346
1411.71	30.6411
1411.98	-2.14032
1412.25	14.2975
1412.51	14.4177
1412.78	-24.3464
1413.05	13.901
1413.32	-22.4955
1413.59	14.7883
1413.86	-26.5426
1414.12	-2.38101
1414.39	-14.5368
1414.66	-17.2906
1414.93	-0.620972
1415.2	7.62515
1415.47	-2.56677
1415.73	28.2953
1416	13.9941
1416.27	13.0622
1416.54	-4.29706
1416.81	2.99149
1417.07	14.3922
1417.34	5.25708
1417.61	-3.88077
1417.88	-7.88779
1418.15	19.9378
1418.42	17.9505
1418.68	22.1377
1418.95	2.69171
1419.22	-7.52118
1419.49	31.599
1419.76	1.80972
1420.02	-8.48245
1420.29	0.740906
1420.56	-0.303711
1420.83	-1.35568
1421.1	8.88089
1421.36	2.70316
1421.63	27.3572
1421.9	19.2291
1422.17	26.5876
1422.44	-4.01971
1422.7	20.8316
1422.97	-2.52271
1423.24	26.6895
1423.51	12.7145
1423.77	22.0522
1424.04	-8.51956
1424.31	20.3588
1424.58	-10.7314
1424.85	9.81885
1425.11	1.79684
1425.38	2.13748
1425.65	28.9142
1425.92	-3.90744
1426.19	-2.68591
1426.45	29.1416
1426.72	21.9409
1426.99	17.7849
1427.26	23.875
1427.52	-0.790497
1427.79	21.6369
1428.06	-24.5318
1428.33	-3.0354
1428.59	13.3759
1428.86	10.3657
1429.13	-23.3448
1429.4	7.46381
1429.67	2.44617
1429.93	25.1
1430.2	8.85446
1430.47	-23.7743
1430.74	-8.26254
1431	29.8524
1431.27	19.8405
1431.54	5.67462
1431.81	19.143
1432.07	24.3307
1432.34	-5.45343
1432.61	-14.7278
1432.87	-2.4234
1433.14	16.9927
1433.41	25.0894
1433.68	32.1335
1433.95	12.5525
1434.21	6.35922
1434.48	7.39481
1434.75	3.5423
1435.01	12.9032
1435.28	19.1222
1435.55	26.3508
1435.82	-10.496
1436.08	-7.38763
1436.35	27.4768
1436.62	-2.21243
1436.89	21.3653
1437.15	9.08368
1437.42	-25.7258
1437.69	18.3591
1437.95	21.4365
1438.22	8.15311
1438.49	14.3709
1438.76	27.8031
1439.02	2.28366
1439.29	12.5928
1439.56	27.0097
1439.82	2.53537
1440.09	36.502
1440.36	7.97043
1440.63	2.94601
1440.89	-6.20697
1441.16	-12.3028
1441.43	39.0453
1441.69	3.17169
1441.96	14.4324
1442.23	-7.08301
1442.49	0.226196
1442.76	28.9993
1443.03	12.7253
1443.3	24.003
1443.56	-17.0349
1443.83	4.48874
1444.1	14.7484
1444.36	-4.69479
1444.63	-6.67114
1444.9	15.0265
1445.16	40.8204
1445.43	54.3501
1445.7	-0.0153809
1445.97	-7.1861
1446.23	26.6799
1446.5	20.5379
1446.77	31.8363
1447.03	33.9018
1447.3	-4.02789
1447.57	3.15756
1447.83	4.17914
1448.1	23.6642
1448.37	20.6332
1448.63	-3.85397
1448.9	51.6654
1449.17	21.9962
1449.43	4.60126
1449.7	19.9973
1449.97	29.2184
1450.23	15.8657
1450.5	30.1956
1450.77	24.0549
1451.03	19.968
1451.3	26.1301
1451.57	21.0155
1451.83	26.1425
1452.1	13.8513
1452.37	-24.0434
1452.63	6.72144
1452.9	18.0424
1453.17	-2.38361
1453.43	-1.26767
1453.7	-10.4077
1453.97	-2.16101
1454.23	13.2274
1454.5	9.15054
1454.77	7.14578
1455.03	-26.6246
1455.3	-4.04794
1455.56	25.6844
1455.83	14.4664
1456.1	-0.789764
1456.36	21.8409
1456.63	-1.68964
1456.9	7.54431
1457.16	22.889
1457.43	8.52127
1457.7	-12.9799
1457.96	-8.86423
1458.23	-9.86151
1458.49	13.7446
1458.76	8.67572
1459.03	15.9131
1459.29	-1.44098
1459.56	4.76279
1459.82	-11.5793
1460.09	13.0376
1460.36	21.2493
1460.62	1.79718
1460.89	12.0494
1461.16	-7.41388
1461.42	-26.8814
1461.69	17.1436
1461.95	1.76727
1462.22	5.83612
1462.49	2.73279
1462.75	8.83264
1463.02	2.64664
1463.28	6.68652
1463.55	-5.64133
1463.82	-7.72873
1464.08	-2.59
1464.35	-22.8793
1464.61	5.9841
1464.88	3.09891
1465.15	-15.1039
1465.41	4.08292
1465.68	9.51825
1465.94	10.2445
1466.21	23.5104
1466.48	26.743
1466.74	-8.98245
1467.01	27.6151
1467.27	5.15436
1467.54	-0.888611
1467.8	-11.0766
1468.07	-12.0855
1468.34	21.5987
1468.6	35.9108
1468.87	14.5191
1469.13	-14.0256
1469.4	-7.90607
1469.67	5.34146
1469.93	-8.97165
1470.2	-13.1028
1470.46	-9.06131
1470.73	-13.1528
1470.99	8.23676
1471.26	-9.07547
1471.53	-26.4091
1471.79	-18.2965
1472.06	0.019165
1472.32	0.0279541
1472.59	-7.0777
1472.85	-9.0878
1473.12	27.593
1473.39	-8.03671
1473.65	2.12314
1473.92	5.15375
1474.18	11.2482
1474.45	17.3614
1474.71	3.14957
1474.98	-7.97302
1475.24	-10.9642
1475.51	16.5586
1475.78	5.38602
1476.04	26.7574
1476.31	6.38501
1476.57	-19.0557
1476.84	21.6429
1477.1	3.30154
1477.37	4.28851
1477.63	14.4605
1477.9	-11.9597
1478.16	-3.79874
1478.43	15.5107
1478.69	24.6152
1478.96	6.2919
1479.22	25.5778
1479.49	1.15268
1479.76	-3.96744
1480.02	-15.1911
1480.29	-9.14365
1480.55	-26.5066
1480.82	1.83844
1481.08	10.9268
1481.35	20.0554
1481.61	-5.34286
1481.88	-24.5492
1482.14	3.95663
1482.41	-13.1895
1482.67	-6.98557
1482.94	-9.93631
1483.2	21.5697
1483.47	-16.9303
1483.73	-5.70123
1484	33.9369
1484.26	-18.8471
1484.53	-13.8911
1484.79	22.4503
1485.06	1.76822
1485.32	-11.8932
1485.59	0.0922852
1485.85	1.84091
1486.12	-18.4791
1486.38	-32.5267
1486.65	-3.96979
1486.91	-4.35229
1487.18	25.2647
1487.44	-21.2546
1487.71	8.04697
1487.97	1.90909
1488.24	13.0262
1488.5	-2.1965
1488.77	-8.32486
1489.03	7.80734
1489.3	23.9551
1489.56	28.9999
1489.83	-7.42694
1490.09	3.70676
1490.36	-26.6141
1490.62	-8.37799
1490.89	41.1717
1491.15	29.9919
1491.42	-7.47223
1491.68	-0.400269
1491.95	7.70163
1492.21	-10.4662
1492.48	-12.4399
1492.74	9.82108
1493	4.77618
1493.27	-19.4684
1493.53	39.1961
1493.8	-13.3681
1494.06	3.83258
1494.33	6.90134
1494.59	-12.2482
1494.86	2.97998
1495.12	14.1157
1495.39	8.01605
1495.65	-7.22894
1495.92	1.7532
1496.18	19.847
1496.45	-18.5661
1496.71	-0.415314
1496.97	-10.5279
1497.24	-8.5314
1497.5	-16.5786
1497.77	4.64307
1498.03	9.69659
1498.3	14.7633
1498.56	5.71432
1498.82	-9.38507
1499.09	-2.27698
1499.35	-0.211182
1499.62	0.854065
1499.88	3.94745
1500.15	0.983032
1500.41	26.2672
1500.68	-5.00323
1500.94	-15.0821
1501.2	17.2405
1501.47	-22.141
1501.73	19.1947
1502	7.08881
1502.26	16.1888
1502.52	8.12946
1502.79	-7.01431
1503.05	5.03839
1503.32	14.0663
1503.58	26.1497
1503.85	15.0122
1504.11	5.96524
1504.37	25.1924
1504.64	-6.02075
1504.9	-8.00543
1505.17	3.09875
1505.43	-0.94635
1505.7	-7.02603
1505.96	-0.0507813
1506.22	-18.2971
1506.49	2.86267
1506.75	-13.2392
1507.02	5.94839
1507.28	-16.1323
1507.54	-7.01953
1507.81	21.2425
1508.07	-16.0167
1508.34	-8.96024
1508.6	-10.9673
1508.86	-35.1133
1509.13	3.21878
1509.39	-6.82278
1509.66	12.3457
1509.92	-4.75693
1510.18	5.39215
1510.45	-1.60767
1510.71	-2.66138
1510.98	-11.7753
1511.24	-2.77026
1511.5	11.2463
1511.77	10.1053
1512.03	-25.2878
1512.29	-12.3803
1512.56	21.6301
1512.82	-2.62579
1513.08	14.3745
1513.35	14.3097
1513.61	-1.80276
1513.88	17.2664
1514.14	26.4276
1514.4	40.6808
1514.67	20.661
1514.93	6.58029
1515.2	-1.51587
1515.46	-14.6434
1515.72	10.381
1515.99	5.27023
1516.25	10.1951
1516.51	14.1501
1516.78	2.10501
1517.04	-4.91718
1517.3	-5.91708
1517.57	9.14029
1517.83	3.15985
1518.09	-8.81555
1518.36	-14.7345
1518.62	-5.65918
1518.88	-7.60886
1519.15	6.4855
1519.41	16.5808
1519.67	-3.42349
1519.94	-6.38562
1520.2	-6.36606
1520.47	3.65921
1520.73	9.67853
1520.99	34.81
1521.26	-5.25052
1521.52	-24.2513
1521.78	-1.13135
1522.05	27.9792
1522.31	-6.14182
1522.57	28.9549
1522.84	8.87164
1523.1	-4.18011
1523.36	17.8455
1523.62	6.72348
1523.89	-14.4507
1524.15	-12.5189
1524.41	21.485
1524.68	10.425
1524.94	-7.63358
1525.2	-9.56381
1525.47	1.49905
1525.73	13.5602
1525.99	11.6448
1526.26	18.7616
1526.52	-15.1721
1526.78	10.9945
1527.05	-4.98315
1527.31	-13.9849
1527.57	-1.9834
1527.84	18.0636
1528.1	-30.0428
1528.36	-19.0219
1528.63	16.0285
1528.89	-29.0671
1529.15	19.0103
1529.41	1.9902
1529.68	-11.0094
1529.94	-2.99332
1530.2	5.98575
1530.47	5.99701
1530.73	4.05942
1530.99	3.16739
1531.25	-7.74396
1531.52	5.37024
1531.78	26.4509
1532.04	4.40869
1532.31	10.4602
1532.57	2.42072
1532.83	16.5242
1533.09	-18.4174
1533.36	-8.22845
1533.62	-0.0561523
1533.88	-13.0117
1534.15	-29.0028
1534.41	28.2029
1534.67	27.2054
1534.94	27.202
1535.2	22.1723
1535.46	-10.929
1535.72	3.06494
1535.99	1.89551
1536.25	-11.2187
1536.51	8.7576
1536.77	20.6645
1537.04	10.5314
1537.3	-18.5885
1537.56	-28.6157
1537.82	7.3382
1538.09	26.3766
1538.35	-6.68073
1538.61	-12.77
1538.87	8.21353
1539.14	25.1963
1539.4	14.3419
1539.66	-27.4133
1539.92	1.91434
1540.19	30.1871
1540.45	-13.6944
1540.71	6.54926
1540.97	-19.3832
1541.24	14.7851
1541.5	12.6422
1541.76	6.63797
1542.02	7.56168
1542.29	31.5377
1542.55	-10.6069
1542.81	-1.65924
1543.07	34.3219
1543.34	12.2361
1543.6	1.15952
1543.86	-11.9427
1544.12	-13.0408
1544.39	20.0091
1544.65	0.0611877
1544.91	-14.8323
1545.17	7.3262
1545.43	2.43942
1545.7	22.6519
1545.96	-5.26981
1546.22	1.82193
1546.48	25.9376
1546.74	-9.11487
1547.01	1.95313
1547.27	7.03748
1547.53	-2.90344
1547.79	1.17673
1548.06	1.12198
1548.32	20.9762
1548.58	4.98495
1548.84	0.0301819
1549.1	-14.8492
1549.37	14.8586
1549.63	2.47501
1549.89	25.4083
1550.15	10.6701
1550.42	28.1378
1550.68	5.74051
1550.94	42.3397
1551.2	18.6792
1551.46	53.576
1551.73	-4.58676
1551.99	27.4922
1552.25	-1.71118
1552.51	28.6152
1552.77	18.7736
1553.03	-4.34705
1553.3	25.6953
1553.56	18.4016
1553.82	8.33701
1554.08	13.3509
1554.34	-8.76196
1554.61	-17.862
1554.87	26.1447
1555.13	-0.0198669
1555.39	7.97714
1555.65	19.0018
1555.91	22.0367
1556.18	-3.95102
1556.44	-3.91473
1556.7	11.0834
1556.96	42.1721
1557.22	19.1932
1557.48	19.2494
1557.75	9.27145
1558.01	19.2995
1558.27	23.2635
1558.53	37.1837
1558.79	14.0872
1559.06	9.9808
1559.32	0.888336
1559.58	9.81839
1559.84	11.7643
1560.1	5.72845
1560.36	41.6901
1560.63	15.692
1560.89	3.70013
1561.15	4.70908
1561.41	9.73541
1561.67	19.7905
1561.93	16.9001
1562.19	25.0437
1562.46	-13.8051
1562.72	-4.76663
1562.98	-7.75195
1563.24	28.2521
1563.5	18.3052
1563.76	39.299
1564.02	-3.68927
1564.29	-13.5223
1564.55	28.6845
1564.81	-5.2561
1565.07	16.7673
1565.33	38.5772
1565.59	0.92215
1565.85	11.9669
1566.11	12.4909
1566.38	-7.79904
1566.64	-5.30673
1566.9	8.52518
1567.16	7.29932
1567.42	36.6471
1567.68	34.0566
1567.94	9.98611
1568.2	20.7386
1568.47	46.8164
1568.73	23.9152
1568.99	8.97995
1569.25	13.9766
1569.51	15.8631
1569.77	18.8097
1570.03	-3.13632
1570.29	11.9205
1570.55	14.9633
1570.82	21.0011
1571.08	14.0332
1571.34	30.0406
1571.6	19.0467
1571.86	20.0178
1572.12	28.9718
1572.38	16.0087
1572.64	44.9587
1572.9	5.96591
1573.17	1.95078
1573.43	-13.0426
1573.69	24.8612
1573.95	7.87375
1574.21	33.8673
1574.47	7.02841
1574.73	33.1147
1574.99	12.2799
1575.25	17.4123
1575.51	-5.43393
1575.78	46.6381
1576.04	2.72284
1576.3	31.7119
1576.56	9.75677
1576.82	-19.2274
1577.08	2.66956
1577.34	10.5453
1577.6	6.44684
1577.86	25.3059
1578.12	47.1573
1578.38	2.19278
1578.64	6.1463
1578.9	1.1759
1579.17	31.118
1579.43	29.1585
1579.69	18.2341
1579.95	19.2923
1580.21	22.3806
1580.47	14.4709
1580.73	17.5084
1580.99	17.53
1581.25	11.5396
1581.51	8.5246
1581.77	30.4403
1582.03	-12.4579
1582.29	18.3884
1582.55	25.3713
1582.81	10.438
1583.07	22.3996
1583.33	27.3954
1583.59	9.49283
1583.85	20.4781
1584.11	11.5132
1584.38	2.58856
1584.64	17.6019
1584.9	17.6682
1585.16	14.7357
1585.42	6.8024
1585.68	28.7335
1585.94	13.8223
1586.2	33.7424
1586.46	12.7749
1586.72	0.771149
1586.98	5.71851
1587.24	26.6049
1587.5	17.6455
1587.76	23.621
1588.02	24.6361
1588.28	29.6541
1588.54	41.6686
1588.8	26.831
1589.06	18.9699
1589.32	49.9171
1589.58	25.1256
1589.84	25.2047
1590.1	10.3255
1590.36	19.3261
1590.62	14.4211
1590.88	38.4087
1591.14	24.5466
1591.4	-8.28815
1591.66	10.6724
1591.92	12.6789
1592.18	-10.2218
1592.44	38.5153
1592.7	0.606628
1592.96	32.3967
1593.22	30.385
1593.48	7.40369
1593.74	11.2664
1594	2.20215
1594.26	4.13177
1594.52	17.0338
1594.78	3.17084
1595.04	1.27258
1595.3	22.2575
1595.56	15.3988
1595.82	2.52371
1596.08	40.1343
1596.34	24.2765
1596.6	22.3323
1596.86	17.4128
1597.12	21.444
1597.38	33.4354
1597.64	4.70621
1597.9	21.6725
1598.16	31.6407
1598.42	26.6772
1598.68	29.6273
1598.94	3.74292
1599.2	17.5901
1599.46	-8.24622
1599.72	9.59625
1599.98	31.4017
1600.24	28.3992
1600.5	26.3922
1600.76	34.2905
1601.02	33.2408
1601.28	54.9607
1601.54	56.8418
1601.8	15.1444
1602.06	44.7876
1602.32	21.9732
1602.58	14.0209
1602.84	24.8657
1603.1	13.9291
1603.36	-7.87473
1603.62	20.7804
1603.88	10.8861
1604.14	0.0223694
1604.4	-0.929993
1604.66	29.7726
1604.92	4.12228
1605.17	5.16046
1605.43	27.9568
1605.69	33.9508
1605.95	14.2525
1606.21	16.3225
1606.47	23.3448
1606.73	7.61514
1606.99	8.69156
1607.25	-11.9651
1607.51	37.9544
1607.77	25.335
1608.03	0.293152
1608.29	31.7172
1608.55	21.8971
1608.81	41.4073
1609.07	11.76
1609.32	11.6868
1609.58	7.30365
1609.84	32.4708
1610.1	2.05511
1610.36	7.23367
1610.62	14.8698
1610.88	33.5758
1611.14	26.9667
1611.4	2.59888
1611.66	9.16199
1611.92	1.45575
1612.18	15.6743
1612.44	29.0376
1612.69	10.5427
1612.95	9.74387
1613.21	13.8294
1613.47	-0.826233
1613.73	10.4365
1613.99	5.35004
1614.25	36.7306
1614.51	10.2738
1614.77	8.03098
1615.03	19.2552
1615.29	2.18073
1615.54	8.63663
1615.8	20.2077
1616.06	29.0883
1616.32	3.60394
1616.58	26.5786
1616.84	3.44498
1617.1	4.27359
1617.36	15.3786
1617.62	-6.68127
1617.88	14.1075
1618.13	10.5113
1618.39	-7.33749
1618.65	11.0997
1618.91	6.78583
1619.17	12.7229
1619.43	18.415
1619.69	13.1668
1619.95	18.1864
1620.2	3.1499
1620.46	10.7895
1620.72	11.838
1620.98	11.1102
1621.24	13.4665
1621.5	18.1086
1621.76	8.12805
1622.02	12.9549
1622.27	16.5588
1622.53	16.7136
1622.79	4.86838
1623.05	11.8254
1623.31	9.4144
1623.57	3.43036
1623.83	17.8281
1624.09	20.0898
1624.34	16.0676
1624.6	19.1137
1624.86	23.3051
1625.12	20.0022
1625.38	15.4276
1625.64	16.3626
1625.9	4.54733
1626.15	25.2849
1626.41	14.7465
1626.67	-8.98032
1626.93	5.63193
1627.19	19.3406
1627.45	14.7016
1627.7	15.227
1627.96	16.0027
1628.22	14.1678
1628.48	13.3756
1628.74	15.4403
1629	7.00165
1629.26	13.5928
1629.51	10.1127
1629.77	8.75262
1630.03	26.3583
1630.29	15.5347
1630.55	-3.93933
1630.81	0.036499
1631.06	18.4099
1631.32	11.0735
1631.53	-15.8662
1631.79	7.88504
1632.05	-14.6536
1632.31	2.21573
1632.57	-17.4622
1632.84	1.42084
1633.1	-4.25027
1633.36	25.2431
1633.62	17.2012
1633.88	-10.3804
1634.14	19.2875
1634.4	4.61957
1634.66	5.67786
1634.93	6.72589
1635.19	24.515
1635.45	16.6662
1635.71	2.89594
1635.97	-6.93823
1636.23	0.958923
1636.49	20.6705
1636.75	-21.6899
1637.02	8.84991
1637.28	26.5679
1637.54	-2.99524
1637.8	7.85342
1638.06	-6.87616
1638.32	11.848
1638.58	8.90732
1638.84	-14.6934
1639.1	30.6436
1639.37	-1.78525
1639.63	5.15436
1639.89	-7.59119
1640.15	11.1582
1640.41	4.30716
1640.67	-3.50195
1640.93	-1.40778
1641.19	-11.1494
1641.46	7.62857
1641.72	10.6089
1641.98	-9.0705
1642.24	6.70837
1642.5	-11.9626
1642.76	0.872528
1643.02	10.7529
1643.28	0.949951
1643.54	8.86966
1643.8	-16.6776
1644.06	-6.81165
1644.33	-13.687
1644.59	7.95602
1644.85	-9.74979
1645.11	17.8384
1645.37	-7.65668
1645.63	0.319366
1645.89	-8.45355
1646.15	7.35144
1646.41	-20.1848
1646.67	7.37558
1646.93	-4.41626
1647.19	-21.1095
1647.46	-0.435486
1647.72	-21.0763
1647.98	33.0341
1648.24	-6.25583
1648.5	-28.8059
1648.76	23.4425
1649.02	14.7219
1649.28	1.19455
1649.54	34.7991
1649.8	11.1826
1650.06	26.9433
1650.32	11.2469
1650.58	16.3413
1650.85	11.5685
1651.11	-12.9297
1651.37	-2.95139
1651.63	-10.7302
1651.89	8.0697
1652.15	6.1564
1652.41	10.1547
1652.67	6.28464
1652.93	8.27264
1653.19	-21.2773
1653.45	6.34549
1653.71	8.37354
1653.97	4.50626
1654.23	-2.29718
1654.49	4.68158
1654.75	-11.0146
1655.01	-12.9044
1655.27	6.91254
1655.53	29.7223
1655.8	22.0082
1656.06	3.46323
1656.32	-9.21732
1656.57	-5.15524
1656.84	-6.05231
1657.1	15.7382
1657.36	-0.99707
1657.62	13.8319
1657.88	12.8586
1658.14	0.0603333
1658.4	23.7714
1658.66	5.03766
1658.92	11.946
1659.18	8.00021
1659.44	-9.75323
1659.7	7.01315
1659.96	-3.83313
1660.22	-13.7148
1660.48	10.032
1660.74	32.8159
1661	16.1725
1661.26	-1.45383
1661.52	12.485
1661.78	-6.12512
1662.04	7.77859
1662.3	-10.8856
1662.56	22.3612
1662.82	13.2951
1663.08	-9.97537
1663.34	-5.17834
1663.6	-9.11655
1663.86	18.5115
1664.12	7.89587
1664.38	-22.2378
1664.64	-1.36127
1664.9	-14.1063
1665.16	12.8039
1665.42	24.7966
1665.68	20.4732
1665.94	-6.46274
1666.2	0.476929
1666.46	-22.1281
1666.72	6.56589
1666.98	-4.77194
1667.24	1.02432
1667.5	-11.6281
1667.76	20.9206
1668.02	28.8069
1668.28	14.0219
1668.54	30.7858
1668.8	-6.63702
1669.06	-8.38712
1669.32	28.4202
1669.58	-2.09732
1669.84	3.89508
1670.1	0.0156555
1670.36	1.02231
1670.62	22.8093
1670.88	7.26196
1671.14	-19.2435
1671.4	-2.418
1671.66	12.4362
1671.92	33.2322
1672.18	40.2267
1672.44	-4.16071
1672.69	13.7027
1672.95	14.7473
1673.21	-6.94397
1673.47	24.7577
1673.73	-2.8475
1673.99	-2.76419
1674.25	-4.64484
1674.51	8.31924
1674.77	6.44632
1675.03	15.4561
1675.29	-2.22052
1675.55	-31.7913
1675.81	10.8503
1676.07	-2.94125
1676.33	-5.85803
1676.59	-0.838776
1676.85	28.9301
1677.11	16.1328
1677.37	-21.4251
1677.63	1.37561
1677.89	30.0977
1678.14	18.2251
1678.4	-10.4814
1678.66	-7.53513
1678.92	-1.6102
1679.18	-0.615021
1679.44	-4.55698
1679.7	-14.4155
1679.96	-6.48682
1680.22	-3.5014
1680.48	-16.3189
1680.74	-10.3688
1681	-22.2043
1681.26	15.3657
1681.52	-9.29364
1681.78	-12.2062
1682.03	3.65488
1682.29	9.63965
1682.55	-14.0093
1682.81	-9.99207
1683.07	-5.00986
1683.33	7.87985
1683.59	1.01782
1683.85	-10.7795
1684.11	2.11026
1684.37	22.8876
1684.63	11.0334
1684.89	9.08374
1685.14	10.1092
1685.4	8.17926
1685.66	-0.65744
1685.92	19.1474
1686.18	22.1705
1686.44	11.3748
1686.7	14.4265
1686.96	11.5995
1687.22	-23.8674
1687.48	8.79889
1687.73	-10.9291
1687.99	3.90247
1688.25	-10.897
1688.51	13.8146
1688.77	30.6163
1689.03	-0.977448
1689.29	8.87207
1689.55	13.7998
1689.81	7.86935
1690.06	-2.01236
1690.32	-0.0648499
1690.58	31.5284
1690.84	-6.79376
1691.1	16.0026
1691.36	-4.62619
1691.62	19.1322
1691.88	6.40182
1692.13	2.54477
1692.39	2.60281
1692.65	-4.26895
1692.91	-10.1857
1693.17	-16.1165
1693.43	15.4238
1693.69	8.47464
1693.95	18.2767
1694.2	9.38553
1694.46	58.6379
1694.72	13.2874
1694.98	19.1985
1695.24	-12.2708
1695.5	-0.371918
1695.76	14.4827
1696.01	27.3696
1696.27	0.851654
1696.53	10.8137
1696.79	20.7613
1697.05	-0.865967
1697.31	17.8792
1697.57	-2.82553
1697.82	-7.78723
1698.08	9.89923
1698.34	-3.90686
1698.6	-6.86621
1698.86	-7.85309
1699.12	5.93106
1699.38	0.0567322
1699.63	-11.7035
1699.89	-6.70728
1700.15	9.09631
1700.41	1.28677
1700.67	-0.6922
1700.92	-8.52243
1701.18	8.24185
1701.44	5.32565
1701.7	-18.2581
1701.96	-6.457
1702.22	-3.52286
1702.47	-4.51474
1702.73	19.059
1702.99	-18.2986
1703.25	1.39029
1703.51	3.40149
1703.77	-12.2877
1704.02	28.998
1704.28	7.41705
1704.54	-8.21317
1704.8	-7.12689
1705.06	21.4378
1705.32	20.4924
1705.57	-18.7792
1705.83	-8.89795
1706.09	9.82666
1706.35	14.7357
1706.61	0.959259
1706.86	13.6943
1707.12	-0.0896301
1707.38	9.69019
1707.64	0.833252
1707.9	14.5246
1708.16	25.2473
1708.41	16.3554
1708.67	18.2496
1708.93	1.50989
1709.19	30.8279
1709.44	-11.3116
1709.7	4.35513
1709.96	4.38388
1710.22	24.0116
1710.48	22.1161
1710.73	24.1411
1710.99	-1.22772
1711.25	-7.97357
1711.51	8.76324
1711.77	2.97458
1712.02	11.8722
1712.28	10.9528
1712.54	20.7599
1712.8	6.01984
1713.06	4.94351
1713.31	0.926086
1713.57	8.65784
1713.83	31.0608
1714.09	-7.14331
1714.34	2.61511
1714.6	-4.21533
1714.86	14.3639
1715.12	8.5358
1715.38	5.65311
1715.63	-6.92926
1715.89	9.81351
1716.15	-6.74567
1716.41	8.91049
1716.66	16.7252
1716.92	-0.881866
1717.18	4.92761
1717.44	-2.95639
1717.69	-13.7867
1717.95	1.69556
1718.21	4.51376
1718.47	7.3493
1718.72	-12.1996
1718.98	-16.119
1719.24	7.25882
1719.5	1.46237
1719.75	-0.435852
1720.01	19.0679
1720.27	-8.11389
1720.53	-5.12506
1720.78	7.54922
1721.04	23.1097
1721.3	4.56763
1721.56	13.299
1721.81	1.60309
1722.07	5.46271
1722.33	20.9804
1722.59	-12.1152
1722.84	12.143
1723.1	-6.35321
1723.36	28.5913
1723.62	7.21039
1723.87	19.8432
1724.13	2.41211
1724.39	-10.1895
1724.64	-4.33035
1724.9	-13.0733
1725.16	-2.43765
1725.42	10.0846
1725.67	10.004
1725.93	4.09863
1726.19	-7.56958
1726.45	11.8203
1726.7	-12.329
1726.96	10.9529
1727.22	-25.8696
1727.47	5.05627
1727.73	-9.42987
1727.99	13.9557
1728.24	-5.39151
1728.5	7.1908
1728.76	-2.57916
1729.02	-7.85703
1729.27	3.23465
1729.53	-4.63849
1729.79	15.8877
1730.05	8.40775
1730.3	1.83853
1730.56	9.3931
1730.82	-2.24194
1731.07	-7.0527
1731.33	-2.73825
1731.59	-7.49606
1731.84	8.99042
1732.1	2.26688
1732.36	0.362549
1732.61	-6.38687
1732.87	-11.2065
1733.13	-24.7343
1733.39	-7.37082
1733.64	-8.39413
1733.9	24.3316
1734.16	6.85492
1734.41	10.6505
1734.67	5.76318
1734.93	17.2606
1735.18	-5.93762
1735.44	14.2266
1735.7	-2.20001
1735.95	-13.7785
1736.21	0.656067
1736.47	0.671448
1736.72	-12.7908
1736.98	12.2312
1737.24	13.1915
1737.49	12.2234
1737.75	-23.368
1738.01	4.52866
1738.26	-6.0643
1738.52	-6.09097
1738.78	8.30051
1739.03	23.6471
1739.29	14.9566
1739.55	-5.27356
1739.8	20.5645
1740.06	-16.0262
1740.32	7.85703
1740.57	-3.74097
1740.83	-2.84641
1741.09	10.5308
1741.34	-3.87695
1741.6	-7.74017
1741.86	2.77045
1742.11	-16.3938
1742.37	-9.68069
1742.63	20.0259
1742.88	20.0423
1743.14	-8.66782
1743.4	7.629
1743.65	-3.82053
1743.91	-0.93808
1744.16	-10.5336
1744.42	14.3269
1744.68	20.0569
1744.93	1.90262
1745.19	6.73013
1745.45	1.99969
1745.7	-15.1719
1745.96	2.07251
1746.22	7.81097
1746.47	8.73941
1746.73	4.86627
1746.98	-8.57574
1747.24	11.4519
1747.5	-0.0695801
1747.75	-3.92609
1748.01	8.44702
1748.27	1.76807
1748.52	-4.87735
1748.78	12.3543
1749.03	-11.4513
1749.29	3.89185
1749.55	0.158722
1749.8	-7.37808
1750.06	-12.9959
1750.32	-8.09631
1750.57	0.6297
1750.83	13.1755
1751.08	6.55872
1751.34	-11.5194
1751.6	8.61087
1751.85	-3.81903
1752.11	0.902039
1752.36	9.43478
1752.62	4.61847
1752.88	0.765045
1753.13	-0.227264
1753.39	5.46329
1753.64	12.1178
1753.9	10.1898
1754.15	2.54172
1754.41	12.043
1754.67	6.28281
1754.92	-15.659
1755.18	4.35483
1755.43	-17.5672
1755.69	-6.13092
1755.95	-10.9119
1756.2	18.5901
1756.46	1.39615
1756.71	-8.17972
1756.97	2.22064
1757.23	0.244659
1757.48	0.183136
1757.74	3.03503
1757.99	-8.38052
1758.25	24.0217
1758.5	-21.4928
1758.76	22.3498
1759.02	9.07852
1759.27	-6.10092
1759.53	12.025
1759.78	-6.94763
1760.04	16.8779
1760.3	0.714539
1760.55	5.48203
1760.81	8.34232
1761.06	1.68182
1761.32	-13.5531
1761.57	7.3389
1761.83	-15.5035
1762.08	-10.7523
1762.34	3.52008
1762.6	-21.1683
1762.85	-1.10696
1763.11	-1.02765
1763.36	1.87213
1763.62	-2.8577
1763.87	0.996613
1764.13	17.2271
1764.38	-2.66565
1764.64	5.05621
1764.89	1.42361
1765.15	-3.23984
1765.4	-1.25049
1765.66	-9.74573
1765.92	-10.6356
1766.17	-9.63245
1766.43	-1.0242
1766.68	5.6669
1766.94	-1.93912
1767.19	-2.87732
1767.45	0.96286
1767.7	1.92334
1767.96	18.0908
1768.21	2.84744
1768.47	1.89236
1768.73	4.75336
1768.98	-1.89435
1769.24	1.80157
1769.49	25.4009
1769.75	8.14459
1770	-11.8833
1770.26	13.802
1770.51	8.22717
1770.77	-9.69611
1771.02	1.74777
1771.28	7.51102
1771.53	-10.4128
1771.79	21.1223
1772.04	13.5998
1772.3	-2.50961
1772.55	19.4603
1772.81	0.546692
1773.06	-3.16837
1773.32	-4.04111
1773.57	-10.6261
1773.83	-9.60269
1774.08	17.1185
1774.34	9.56784
1774.59	23.9049
1774.85	17.2937
1775.1	-10.2332
1775.36	3.16132
1775.61	-20.5518
1775.87	9.17484
1776.12	2.63181
1776.38	-2.05392
1776.63	0.854095
1776.89	-12.4743
1777.14	1.81473
1777.4	-2.97751
1777.65	17.983
1777.91	16.0452
1778.16	-4.94373
1778.42	10.2641
1778.67	-8.81226
1778.93	8.28461
1779.18	7.27094
1779.44	6.25223
1779.69	-1.38446
1779.95	6.25378
1780.2	5.4386
1780.46	22.628
1780.71	-1.10614
1780.97	17.0432
1781.22	-1.92615
1781.47	9.5379
1781.73	-7.55051
1781.98	11.5556
1782.24	4.97244
1782.49	1.25275
1782.75	8.98969
1783	-9.97903
1783.26	6.29318
1783.51	14.942
1783.77	21.6938
1784.02	8.42834
1784.28	8.51251
1784.53	5.74857
1784.79	3.00992
1785.04	-1.67349
1785.29	-1.61316
1785.55	-1.58228
1785.8	3.20047
1786.06	-19.7012
1786.31	-14.9366
1786.57	-4.40775
1786.82	4.23837
1787.08	6.23468
1787.33	6.34174
1787.58	9.33484
1787.84	28.6014
1788.09	-8.40683
1788.35	2.36227
1788.6	-18.4326
1788.86	0.883606
1789.11	7.67606
1789.37	-8.48972
1789.62	-9.28915
1789.87	-5.34
1790.13	-3.34915
1790.38	26.4399
1790.64	3.51105
1790.89	-15.6302
1791.15	5.47299
1791.4	10.2131
1791.65	24.3877
1791.91	16.7215
1792.16	5.22165
1792.42	-3.36493
1792.67	18.7055
1792.93	22.585
1793.18	-9.90778
1793.43	32.301
1793.69	-11.7307
1793.94	30.4543
1794.2	19.9925
1794.45	16.2018
1794.7	13.3476
1794.96	6.61246
1795.21	2.90762
1795.47	24.3102
1795.72	0.541168
1795.97	-2.21954
1796.23	20.9037
1796.48	15.2371
1796.74	8.61075
1796.99	25.0387
1797.25	14.5727
1797.5	18.5117
1797.75	-18.8873
1798.01	9.05994
1798.26	25.4701
1798.51	-0.42926
1798.77	13.0793
1799.02	9.26147
1799.28	4.45917
1799.53	16.9441
1799.78	-0.391266
1800.04	22.6309
1800.29	14.9005
1800.55	31.2058
1800.8	22.5392
1801.05	28.2938
1801.31	3.32166
1801.56	-2.4285
1801.81	-7.20697
1802.07	3.39526
1802.32	-1.3598
1802.58	15.03
1802.83	12.2196
1803.08	20.9533
1803.34	6.63281
1803.59	18.2706
1803.84	2.01166
1804.1	0.144043
1804.35	-1.73724
1804.61	-11.2881
1804.86	0.343414
1805.11	14.8652
1805.37	22.6695
1805.62	0.643036
1805.87	24.8257
1806.13	2.77609
1806.38	25.982
1806.64	2.9397
1806.89	15.5375
1807.14	10.773
1807.4	5.98853
1807.65	4.08633
1807.9	-6.49261
1808.16	3.17133
1808.41	16.6928
1808.66	29.2536
1808.92	9.04474
1809.17	-2.48822
1809.42	17.7903
1809.68	26.5003
1809.93	19.7891
1810.18	10.1843
1810.44	0.575775
1810.69	13.1342
1810.94	31.4552
1811.2	13.139
1811.45	17.0102
1811.7	7.38181
1811.96	0.648621
1812.21	-0.291687
1812.46	13.2427
1812.72	12.3377
1812.97	-3.98575
1813.22	22.1379
1813.48	-13.482
1813.73	-0.900726
1813.98	14.6061
1814.24	8.91589
1814.49	17.7195
1814.74	-2.43744
1815	8.32181
1815.25	42.2262
1815.5	22.0136
1815.76	5.63455
1816.01	0.839386
1816.26	-9.75772
1816.52	4.77716
1816.77	12.5526
1817.02	29.0311
1817.27	7.76007
1817.53	0.960632
1817.78	21.1028
1818.03	1.68091
1818.29	-4.07941
1818.54	9.52365
1818.79	3.84064
1819.05	20.3427
1819.3	48.3658
1819.55	-5.70895
1819.8	18.5133
1820.06	-8.49335
1820.31	-2.64493
1820.56	1.27988
1820.82	13.9155
1821.07	13.972
1821.32	15.9571
1821.58	23.7623
1821.83	12.2277
1822.08	12.2959
1822.33	32.6781
1822.59	15.3072
1822.84	23.0917
1823.09	5.70392
1823.34	19.2902
1823.6	20.2668
1823.85	5.7309
1824.1	9.58203
1824.36	-3.96246
1824.61	6.72769
1824.86	3.8703
1825.11	45.5456
1825.37	13.6481
1825.62	5.95526
1825.87	33.1118
1826.12	4.08066
1826.38	19.5885
1826.63	2.17773
1826.88	10.9182
1827.14	5.12994
1827.39	11.9466
1827.64	13.9324
1827.89	36.269
1828.15	7.25421
1828.4	5.33234
1828.65	32.4601
1828.9	24.6862
1829.16	14.9603
1829.41	12.0339
1829.66	3.31671
1829.91	22.6859
1830.17	21.7093
1830.42	19.7422
1830.67	27.4593
1830.92	9.03821
1831.18	1.30722
1831.43	19.7552
1831.68	1.41852
1831.93	18.9125
1832.19	-7.18179
1832.44	3.53036
1832.69	-5.12799
1832.94	6.58255
1833.2	38.6306
1833.45	20.2341
1833.7	4.74573
1833.95	34.8416
1834.2	16.4521
1834.46	17.4579
1834.71	-9.76398
1834.96	33.6639
1835.21	32.5189
1835.47	31.3873
1835.72	30.3188
1835.97	8.94666
1836.22	12.8218
1836.48	24.3543
1836.73	23.9291
1836.98	52.0487
1837.23	26.3138
1837.48	30.9926
1837.74	8.46124
1837.99	28.5744
1838.24	15.635
1838.49	14.457
1838.74	46.3038
1839	16.9735
1839.25	0.783966
1839.5	22.2376
1839.75	14.5484
1840	16.5457
1840.26	15.6766
1840.51	19.2274
1840.76	21.8849
1841.01	46.8228
1841.27	3.13092
1841.52	27.1319
1841.77	20.2135
1842.02	8.48932
1842.27	39.2516
1842.53	2.46866
1842.78	20.6863
1843.03	7.25491
1843.28	24.5899
1843.53	7.2774
1843.78	7.28052
1844.04	16.9355
1844.29	22.6925
1844.54	4.37262
1844.79	27.5762
1845.04	24.6981
1845.3	-3.32605
1845.55	-8.12738
1845.8	18.8912
1846.05	5.54086
1846.3	9.56467
1846.55	12.61
1846.81	-6.45865
1847.06	12.6786
1847.31	17.9585
1847.56	23.1297
1847.81	0.87558
1848.07	12.4413
1848.32	-11.4478
1848.57	13.7678
1848.82	9.73807
1849.07	12.5385
1849.32	7.74252
1849.57	2.86673
1849.83	18.1714
1850.08	-2.13953
1850.33	16.0399
1850.58	2.45065
1850.83	5.23792
1851.09	8.99631
1851.34	28.1402
1851.59	-9.38428
1851.84	15.5425
1852.09	0.1474
1852.34	28.9443
1852.59	13.5832
1852.84	14.5504
1853.1	7.8338
1853.35	18.3918
1853.6	16.4542
1853.85	13.54
1854.1	9.63608
1854.35	31.6133
1854.6	8.47348
1854.86	16.0503
1855.11	22.7113
1855.36	-15.6879
1855.61	12.016
1855.86	1.36453
1856.11	-2.5271
1856.36	2.23651
1856.61	-4.48126
1856.87	9.89114
1857.12	-5.431
1857.37	20.4187
1857.62	1.23758
1857.87	6.94684
1858.12	10.7383
1858.37	-8.45886
1858.63	17.32
1858.88	8.62988
1859.13	11.4222
1859.38	-3.96353
1859.63	8.38403
1859.88	2.59
1860.13	14.0582
1860.38	23.6246
1860.63	-1.20636
1860.89	17.9885
1861.14	5.62262
1861.39	-1.97394
1861.64	4.79233
1861.89	23.9911
1862.14	6.78943
1862.39	21.1293
1862.64	0.0287476
1862.9	0.915039
1863.15	12.313
1863.4	-0.198151
1863.65	3.54971
1863.9	14.9467
1864.15	-8.05252
1864.4	19.5944
1864.65	6.16113
1864.9	-8.22354
1865.15	-0.651611
1865.4	9.76401
1865.66	9.66089
1865.91	-11.4418
1866.16	14.1812
1866.41	3.54849
1866.66	-8.98453
1866.91	15.6401
1867.16	3.11597
1867.41	-7.4917
1867.66	17.1161
1867.91	4.64954
1868.16	-0.162567
1868.41	-6.85364
1868.67	-0.219696
1868.92	-6.86575
1869.17	-0.190033
1869.42	8.36612
1869.67	3.59698
1869.92	14.9849
1870.17	6.41177
1870.42	25.4063
1870.67	13.0344
1870.92	-15.4901
1871.17	1.61139
1871.42	30.1201
1871.67	6.33743
1871.92	-1.30182
1872.17	1.4917
1872.42	-16.5966
1872.68	-1.42975
1872.93	2.30789
1873.18	-8.2052
1873.43	2.19373
1873.68	9.77454
1873.93	-7.33798
1874.18	-4.53625
1874.43	18.1756
1874.68	-2.77515
1874.93	18.9565
1875.18	11.279
1875.43	-2.08865
1875.68	-5.02634
1875.93	25.1697
1876.18	4.13562
1876.43	11.5804
1876.68	7.68823
1876.93	3.82056
1877.18	-9.46945
1877.43	9.27176
1877.68	4.33469
1877.93	8.65561
1878.18	6.11221
1878.44	2.6521
1878.69	6.90143
1878.93	-15.0176
1879.19	-3.70551
1879.44	28.8178
1879.69	-7.95749
1879.94	-4.27005
1880.19	6.04269
1880.44	5.0798
1880.69	8.8446
1880.94	7.03186
1881.19	3.16711
1881.44	4.09769
1881.69	22.88
1881.94	13.2405
1882.19	5.49884
1882.44	0.587677
1882.69	5.11023
1882.94	14.3034
1883.19	-18.8163
1883.44	-9.62625
1883.69	4.93771
1883.94	2.47787
1884.19	1.57101
1884.44	0.656738
1884.69	3.69263
1884.94	9.16272
1885.19	-6.73175
1885.44	-1.83881
1885.69	-13.1108
1885.94	-0.799896
1886.19	14.4761
1886.44	31.5598
1886.69	16.5084
1886.94	-8.08118
1887.19	2.16208
1887.44	-2.63373
1887.69	-8.37411
1887.94	10.4106
1888.19	9.37717
1888.44	-0.150787
1888.69	-3.11295
1888.94	25.9743
1889.19	4.19513
1889.44	3.14612
1889.69	-15.7393
1889.94	-16.6916
1890.19	20.9456
1890.44	-19.4991
1890.69	-10.0078
1890.94	-7.10379
1891.19	9.87482
1891.43	22.1067
1891.68	0.412842
1891.94	6.05786
1892.18	12.6275
1892.43	16.3759
1892.68	8.83044
1892.93	-19.4648
1893.18	-0.705444
1893.43	-10.2379
1893.68	17.7893
1893.93	25.1325
1894.18	-18.1459
1894.43	11.9888
1894.68	7.16098
1894.93	0.521973
1895.18	-1.38287
1895.43	15.5383
1895.68	8.98938
1895.93	3.38892
1896.18	15.6482
1896.43	14.7562
1896.68	5.41556
1896.93	-1.09677
1897.18	15.8904
1897.42	-1.93124
1897.68	5.62723
1897.92	10.3477
1898.17	17.8724
1898.42	19.7323
1898.67	6.5235
1898.92	3.642
1899.17	-3.95758
1899.42	-11.5633
1899.67	-1.28922
1899.92	-15.419
1900.17	-6.06561
1900.42	0.467834
1900.67	-8.93661
1900.92	-6.10672
1901.16	-6.0712
1901.41	-4.13437
1901.66	0.637146
1901.91	-3.05411
1902.16	8.29938
1902.41	0.860657
1902.66	15.0464
1902.91	-11.2869
1903.16	8.4382
1903.41	-0.0618896
1903.66	8.36133
1903.91	14.9135
1904.16	-5.79446
1904.41	-11.4505
1904.65	7.34399
1904.9	6.39252
1905.15	-7.72696
1905.4	6.36163
1905.65	-0.222656
1905.9	-8.7012
1906.15	18.458
1906.4	-20.1823
1906.65	9.83148
1906.9	2.27716
1907.14	-3.39151
1907.39	-6.23196
1907.64	21.0052
1907.89	-2.44925
1908.14	-11.7953
1908.39	-7.97339
1908.64	6.14871
1908.89	6.17035
1909.14	15.6054
1909.39	10.0255
1909.63	-8.70096
1909.88	-20.8375
1910.13	5.59619
1910.38	24.5308
1910.63	9.60303
1910.88	2.18277
1911.13	-9.0372
1911.38	-2.38962
1911.62	-1.41183
1911.87	3.31381
1912.12	9.90686
1912.37	2.34891
1912.62	7.0361
1912.87	-4.27188
1913.12	-15.5729
1913.37	-5.20966
1913.61	-24.9753
1913.86	14.641
1914.11	-1.27271
1914.36	5.43646
1914.61	-2.02249
1914.86	5.59525
1915.11	15.1063
1915.36	-6.51968
1915.6	2.02335
1915.85	20.9191
1916.1	-16.8322
1916.35	14.2798
1916.6	3.88434
1916.85	-13.1438
1917.1	-12.2688
1917.34	12.1931
1917.59	14.0291
1917.84	3.62366
1918.09	9.26102
1918.34	-7.69659
1918.59	-9.53271
1918.83	-0.0247803
1919.08	5.73074
1919.33	0.176971
1919.58	15.394
1919.83	9.88074
1920.08	5.28595
1920.33	2.5209
1920.57	2.53961
1920.82	4.39175
1921.07	-7.86526
1921.32	-14.392
1921.57	4.60596
1921.81	2.77148
1922.06	11.3342
1922.31	0.965729
1922.56	31.234
1922.81	-5.67471
1923.06	7.51416
1923.31	14.0846
1923.55	-0.126923
1923.8	2.68427
1924.05	7.38077
1924.3	-4.00623
1924.55	4.43988
1924.79	-5.99203
1925.04	-0.333649
1925.29	-3.15063
1925.54	-5.93732
1925.79	11.1497
1926.04	12.2077
1926.28	-6.60284
1926.53	5.78494
1926.78	-11.1461
1927.03	0.320648
1927.28	7.96973
1927.52	20.3363
1927.77	7.13391
1928.02	-3.23569
1928.27	11.9632
1928.52	29.0576
1928.76	33.8253
1929.01	2.6109
1929.26	10.2413
1929.51	-12.4448
1929.76	4.69711
1930	-2.77646
1930.25	3.00665
1930.5	-3.52505
1930.75	-7.23428
1931	0.455566
1931.24	1.43585
1931.49	-6.14581
1931.74	25.1628
1931.99	-0.511047
1932.24	-6.24747
1932.48	-5.34143
1932.73	0.309662
1932.98	5.00446
1933.23	-10.1858
1933.47	-2.63715
1933.72	-11.1488
1933.97	13.6244
1934.22	-10.8805
1934.46	-6.85764
1934.71	-14.1602
1934.96	-3.40448
1935.21	22.5689
1935.46	-2.93164
1935.7	-1.80496
1935.95	13.576
1936.2	3.81293
1936.45	0.924225
1936.69	5.67255
1936.94	-12.4713
1937.19	3.66165
1937.44	6.43964
1937.68	34.9408
1937.93	-5.12039
1938.18	7.19824
1938.43	-6.19205
1938.68	-8.09244
1938.92	3.4545
1939.17	-3.16306
1939.42	0.704529
1939.67	-1.1366
1939.91	19.8713
1940.16	-3.88159
1940.41	18.0536
1940.66	-4.72516
1940.9	4.897
1941.15	-19.668
1941.4	-17.6283
1941.64	-4.26193
1941.89	10.0133
1942.14	-12.0445
1942.39	15.4077
1942.63	4.10184
1942.88	-6.0354
1943.13	20.7865
1943.38	11.2596
1943.62	21.6221
1943.87	10.0157
1944.12	9.90057
1944.37	-7.04611
1944.61	23.5799
1944.86	15.0712
1945.11	-1.0737
1945.35	2.83942
1945.6	9.62091
1945.85	14.4939
1946.1	1.19757
1946.34	5.09451
1946.59	-15.8827
1946.84	13.8091
1947.09	10.9693
1947.33	9.05685
1947.58	9.99048
1947.83	-1.51309
1948.07	-1.51331
1948.32	13.7911
1948.57	4.23404
1948.82	-8.21573
1949.06	5.1954
1949.31	-0.471588
1949.56	-11.8726
1949.8	8.29849
1950.05	6.48206
1950.3	-15.4346
1950.54	8.65433
1950.79	16.4899
1951.04	12.7928
1951.29	3.35199
1951.53	0.626099
1951.78	-11.7086
1952.03	3.75995
1952.27	11.519
1952.52	-8.58398
1952.77	3.96497
1953.01	5.88162
1953.26	10.7574
1953.51	1.2485
1953.76	-8.44354
1954	-13.3624
1954.25	-3.00992
1954.49	-1.27304
1954.74	6.22391
1954.99	-0.633209
1955.24	2.20114
1955.48	-3.54901
1955.73	-5.41489
1955.98	11.9366
1956.22	-0.363342
1956.47	11.4023
1956.72	-6.72165
1956.96	5.87802
1957.21	14.591
1957.46	6.04184
1957.7	16.6928
1957.95	-0.52301
1958.2	10.1074
1958.44	5.34897
1958.69	-8.0715
1958.94	-2.27606
1959.18	15.9682
1959.43	11.1046
1959.68	8.19751
1959.92	0.508423
1960.17	5.26984
1960.42	6.18588
1960.66	9.9856
1960.91	2.25494
1961.16	8.92114
1961.4	-2.64865
1961.65	14.5854
1961.9	6.8833
1962.14	9.78525
1962.39	14.6158
1962.63	-8.39349
1962.88	6.99011
1963.13	0.297516
1963.37	3.20285
1963.62	-5.41266
1963.87	6.13138
1964.11	11.9209
1964.36	-26.4297
1964.61	-11.979
1964.85	23.5571
1965.1	9.13763
1965.35	-1.40527
1965.59	-3.32623
1965.84	-4.26682
1966.08	3.46194
1966.33	9.30453
1966.58	5.55331
1966.82	-13.5747
1967.07	14.3609
1967.32	9.61359
1967.56	18.2663
1967.81	1.94183
1968.05	7.75305
1968.3	25.084
1968.55	3.9632
1968.79	14.5446
1969.04	9.71823
1969.29	-8.59174
1969.53	-9.62207
1969.78	5.65509
1970.02	-2.12476
1970.27	-2.19934
1970.52	0.622711
1970.76	-9.96921
1971.01	10.1366
1971.25	-0.456512
1971.5	24.4596
1971.75	-10.0937
1971.99	-3.39182
1972.24	-2.39401
1972.48	9.16461
1972.73	-18.6241
1972.98	6.32947
1973.22	5.35403
1973.47	-15.7903
1973.71	8.12421
1973.96	-0.554718
1974.21	22.4207
1974.45	-1.55911
1974.7	5.1517
1974.94	-4.41708
1975.19	-2.47299
1975.44	9.07358
1975.68	-3.32999
1975.93	-7.09851
1976.17	0.633575
1976.42	14.112
1976.66	-7.91098
1976.91	14.179
1977.16	-5.94803
1977.4	1.73087
1977.65	9.39639
1977.89	18.0038
1978.14	-6.96863
1978.39	-7.00781
1978.63	-13.7485
1978.88	18.8214
1979.12	-3.2305
1979.37	4.45227
1979.61	-3.18903
1979.86	24.626
1980.1	6.44418
1980.35	4.54895
1980.6	1.6561
1980.84	5.44418
1981.09	-9.9288
1981.33	19.7594
1981.58	-2.30872
1981.82	7.2489
1982.07	-4.25204
1982.31	1.49878
1982.56	17.7834
1982.81	8.16742
1983.05	9.08276
1983.3	18.5892
1983.54	3.1893
1983.79	-3.56635
1984.03	5.02719
1984.28	8.84515
1984.52	11.6973
1984.77	-6.49307
1985.02	9.75223
1985.26	6.84195
1985.51	10.5922
1985.75	5.7865
1986	-6.61972
1986.24	7.75623
1986.49	-0.781769
1986.73	10.7667
1986.98	9.858
1987.22	17.512
1987.47	-7.30655
1987.71	-22.6436
1987.96	14.5584
1988.21	2.99152
1988.45	-8.58203
1988.7	5.6105
1988.94	9.2085
1989.19	12.6096
1989.43	5.80319
1989.68	18.2373
1989.92	6.74704
1990.17	-5.05313
1990.41	-4.02478
1990.66	1.28244
1990.9	15.9559
1991.15	1.8559
1991.39	13.8903
1991.64	1.05124
1991.88	14.8873
1992.13	-3.30273
1992.37	15.2156
1992.62	-2.68689
1992.86	14.0045
1993.11	15.6521
1993.35	9.11014
1993.6	9.3869
1993.84	-4.06665
1994.09	-4.40817
1994.33	1.39844
1994.58	-5.3006
1994.82	-4.52966
1995.07	4.01099
1995.31	5.94275
1995.56	1.68124
1995.8	-11.3359
1996.05	20.6217
1996.29	8.90552
1996.54	7.42026
1996.78	4.6553
1997.03	-4.12848
1997.27	2.97998
1997.52	-6.73013
1997.76	-16.83
1998.01	-3.93707
1998.25	4.93539
1998.5	-3.45468
1998.74	10.0818
1998.99	2.27963
1999.23	-8.65558
1999.48	2.31876
1999.72	6.35962
1999.97	1.79874
2000.21	-7.61215
2000.46	-0.323853
2000.7	-5.57843
2000.95	-3.30634
2001.19	0.793182
2001.43	12.3347
2001.68	11.989
2001.92	-4.74738
2002.17	-1.92844
2002.41	-1.80914
2002.66	-1.34863
2002.9	-3.84305
2003.15	4.31366
2003.39	14.7141
2003.64	-2.58792
2003.88	5.22955
2004.13	7.38623
2004.37	12.1164
2004.61	3.47885
2004.86	7.44504
2005.1	10.3659
2005.35	1.52188
2005.59	-3.73828
2005.84	4.78052
2006.08	7.3309
2006.33	4.00711
2006.57	6.58243
2006.81	1.08722
2007.06	-4.36871
2007.3	0.548218
2007.55	9.4028
2007.79	-4.28503
2008.04	-2.06561
2008.28	6.35901
2008.53	0.0623474
2008.77	1.52975
2009.01	11.254
2009.26	-7.63004
2009.5	-2.52429
2009.75	-0.871948
2009.99	-4.59784
2010.24	6.49765
2010.48	7.202
2010.73	-8.55429
2010.97	-3.40665
2011.21	2.04349
2011.46	4.34109
2011.7	18.6026
2011.95	-0.260803
2012.19	0.0583191
2012.43	16.4948
2012.68	-4.22473
2012.92	0.483551
2013.17	2.32172
2013.42	17.2852
2013.67	2.08505
2013.91	-7.38992
2014.16	-7.48538
2014.41	9.30615
2014.66	-15.2654
2014.9	2.44284
2015.15	-6.95993
2015.4	-9.73468
2015.64	-1.21658
2015.89	7.31668
2016.14	-12.3329
2016.39	5.49536
2016.63	-9.41611
2016.88	-14.7866
2017.13	16.3029
2017.37	11.6088
2017.62	1.2453
2017.87	1.19247
2018.11	1.11505
2018.36	4.76642
2018.61	-5.67133
2018.86	12.0573
2019.1	16.6448
2019.35	4.34454
2019.6	1.43582
2019.84	1.39734
2020.09	10.743
2020.34	-7.9895
2020.58	-22.0193
2020.83	-7.95895
2021.08	-9.81827
2021.33	-2.28027
2021.57	-1.29562
2021.82	5.28952
2022.07	15.6031
2022.31	-14.3713
2022.56	10.8927
2022.81	-5.99814
2023.05	3.30814
2023.3	27.568
2023.55	-6.16141
2023.8	-5.27188
2024.04	-6.25223
2024.29	-13.7763
2024.54	-14.7464
2024.78	1.06052
2025.03	9.37799
2025.27	-0.04776
2025.52	2.67386
2025.77	-1.1319
2026.02	5.33484
2026.26	10.8379
2026.51	-5.88904
2026.76	-6.67145
2027	-10.1695
2027.25	8.79446
2027.5	7.24835
2027.74	8.39493
2027.99	-3.78595
2028.23	11.9258
2028.48	16.303
2028.73	-2.3291
2028.98	12.5981
2029.22	-15.159
2029.47	5.74689
2029.72	43.5541
2029.96	3.65463
2030.21	10.7824
2030.45	6.68481
2030.7	13.2231
2030.95	17.6251
2031.19	21.641
2031.44	-13.5796
2031.69	-0.537872
2031.93	18.1536
2032.18	-1.40253
2032.43	17.3902
2032.67	3.52954
2032.92	-6.59195
2033.17	-3.65173
2033.41	-11.9493
2033.66	-4.37589
2033.91	26.6077
2034.15	19.2062
2034.4	-10.8612
2034.64	19.7725
2034.89	5.44135
2035.14	-22.605
2035.38	4.62128
2035.63	10.368
2035.87	-21.1682
2036.12	22.091
2036.37	2.66107
2036.61	-3.87222
2036.86	15.6146
2037.11	-3.04312
2037.35	26.9872
2037.6	5.50623
2037.84	-7.57236
2038.09	19.5367
2038.34	-8.52292
2038.58	13.891
2038.83	8.25757
2039.08	7.2966
2039.32	-3.94049
2039.57	5.37131
2039.81	1.60602
2040.06	11.8301
2040.31	0.559082
2040.55	-11.636
2040.8	1.36951
2041.04	5.04773
2041.29	-2.45459
2041.54	-9.94287
2041.78	9.63687
2042.03	1.254
2042.27	-14.6087
2042.52	11.4764
2042.77	9.56866
2043.01	10.5016
2043.26	-0.652039
2043.5	-8.04813
2043.75	6.98138
2044	5.28198
2044.24	-6.67477
2044.49	-8.46191
2044.73	-5.65042
2044.98	14.8186
2045.23	-6.75305
2045.47	-2.35904
2045.72	-1.92374
2045.96	15.9325
2046.21	-5.0274
2046.45	-0.71875
2046.7	17.7249
2046.95	-9.67453
2047.19	0.382111
2047.44	1.35782
2047.68	-6.17816
2047.93	4.7767
2048.17	-13.9106
2048.42	30.8784
2048.67	6.68561
2048.91	-9.11292
2049.16	7.73306
2049.4	-9.87076
2049.65	7.01889
2049.89	1.54639
2050.14	18.5009
2050.39	-21.5271
2050.63	-1.79501
2050.88	9.4967
2051.12	-2.60248
2051.37	-2.595
2051.61	8.57422
2051.86	-3.63647
2052.11	13.1958
2052.35	15.099
2052.6	-7.23248
2052.84	13.3569
2053.09	20.8994
2053.33	9.7746
2053.58	1.46185
2053.82	-1.22745
2054.07	-1.97635
2054.31	23.3674
2054.56	17.831
2054.8	16.9357
2055.05	-6.42984
2055.3	-2.67719
2055.54	8.55161
2055.79	8.49811
2056.03	-6.4726
2056.28	18.7837
2056.52	-1.78888
2056.77	-1.79681
2057.01	14.0999
2057.26	-2.69919
2057.5	-4.52475
2057.75	11.4212
2058	18.037
2058.24	-17.4153
2058.49	-2.37518
2058.73	1.47653
2058.98	0.644897
2059.22	7.29398
2059.47	-1.04974
2059.71	12.1046
2059.96	3.72604
2060.2	16.8681
2060.45	-2.80615
2060.69	-0.0204468
2060.94	-15.9382
2061.18	0.974884
2061.43	-3.62961
2061.67	11.4109
2061.92	7.70889
2062.16	14.2977
2062.41	25.5738
2062.65	10.6447
2062.9	-3.33847
2063.14	15.4685
2063.39	-20.9766
2063.63	5.33813
2063.88	-1.14883
2064.12	1.72705
2064.37	0.845459
2064.61	20.5849
2064.86	11.2785
2065.1	8.54346
2065.35	4.89899
2065.59	6.90497
2065.84	7.9649
2066.08	9.01346
2066.33	1.59717
2066.57	12.9385
2066.82	10.1632
2067.06	-7.61682
2067.31	6.53583
2067.55	4.71347
2067.8	10.4219
2068.04	13.3242
2068.29	15.2786
2068.53	-1.57541
2068.78	5.99048
2069.02	6.06796
2069.27	17.3799
2069.51	18.2958
2069.76	4.12622
2070	-7.26535
2070.25	33.0884
2070.49	5.91159
2070.73	8.89789
2070.98	4.39587
2071.22	29.0521
2071.47	14.0031
2071.71	29.9106
2071.96	18.1138
2072.2	-9.02859
2072.45	5.09949
2072.69	14.5165
2072.94	10.7649
2073.18	18.293
2073.43	7.01947
2073.67	-2.38818
2073.92	-1.40665
2074.16	8.98682
2074.4	1.49921
2074.65	12.8625
2074.89	3.53351
2075.14	14.9537
2075.38	12.2714
2075.63	-6.40924
2075.87	-10.9296
2076.12	10.9182
2076.36	21.3903
2076.6	11.0397
2076.85	-3.08105
2077.09	11.067
2077.34	5.35855
2077.58	4.36261
2077.83	-5.19885
2078.07	15.5341
2078.31	25.0314
2078.56	9.09628
2078.8	21.4151
2079.05	15.8098
2079.29	12.1093
2079.54	-1.94324
2079.78	-10.2637
2080.03	11.5488
2080.27	22.024
2080.51	23.0494
2080.76	10.8345
2081	-6.14725
2081.25	18.4106
2081.49	11.7953
2081.74	-12.7568
2081.98	-2.34433
2082.22	15.6173
2082.47	-1.34003
2082.71	-4.12677
2082.96	6.30972
2083.2	1.61438
2083.45	14.8616
2083.69	8.2551
2083.93	22.4381
2084.18	2.61761
2084.42	17.7638
2084.67	3.608
2084.91	6.4704
2085.15	22.5684
2085.4	12.1985
2085.64	1.82431
2085.89	-7.60248
2086.13	0.947876
2086.37	28.4698
2086.62	9.69366
2086.86	-11.0151
2087.11	12.6877
2087.35	9.91299
2087.59	14.7223
2087.84	7.20636
2088.08	34.6752
2088.32	3.47147
2088.57	24.3228
2088.81	18.6811
2089.06	2.62979
2089.3	10.2392
2089.54	5.57959
2089.79	11.3386
2090.03	8.60861
2090.28	-6.49493
2090.52	1.12051
2090.76	19.1649
2091.01	11.6379
2091.25	-10.0985
2091.5	25.0217
2091.74	10.8625
2091.98	13.8146
2092.23	19.625
2092.47	32.0893
2092.72	-9.52829
2092.96	20.9801
2093.2	24.8925
2093.45	36.3985
2093.69	10.8602
2093.93	12.8633
2094.18	8.20096
2094.42	12.0862
2094.66	9.27307
2094.91	14.045
2095.15	6.44144
2095.39	11.1889
2095.64	17.8035
2095.88	14.9068
2096.13	-0.326782
2096.37	15.8045
2096.61	-3.20306
2096.86	25.3017
2097.1	19.6055
2097.34	21.4756
2097.59	1.48145
2097.83	21.3707
2098.07	12.8146
2098.32	7.11768
2098.56	16.6107
2098.8	29.8656
2099.05	-0.488892
2099.29	9.01062
2099.53	30.8354
2099.78	30.836
2100.02	6.17215
2100.27	14.7327
2100.51	23.3012
2100.75	21.4386
2101	15.7947
2101.24	5.45169
2101.48	21.6766
2101.73	13.1887
2101.97	5.62741
2102.21	28.4388
2102.45	5.6503
2102.7	13.2661
2102.94	4.71332
2103.18	17.0194
2103.43	12.2162
2103.67	12.193
2103.92	19.7926
2104.16	14.0919
2104.4	12.2145
2104.64	21.7513
2104.89	13.2745
2105.13	13.34
2105.37	19.1008
2105.62	12.5265
2105.86	-4.48566
2106.1	21.2498
2106.35	13.6986
2106.59	18.4997
2106.83	3.3215
2107.08	9.05331
2107.32	24.31
2107.56	11.9746
2107.8	6.24585
2108.05	20.4521
2108.29	4.22043
2108.53	18.3913
2108.78	3.11401
2109.02	-3.59055
2109.26	5.88962
2109.51	4.01694
2109.75	25.9586
2109.99	7.99362
2110.23	8.95911
2110.48	30.8214
2110.72	-4.31705
2110.96	33.6929
2111.21	25.1551
2111.45	13.7631
2111.69	21.35
2111.93	26.0619
2112.18	10.8412
2112.42	17.4791
2112.66	7.99146
2112.91	18.4821
2113.15	5.23065
2113.39	10.9802
2113.63	29.1276
2113.88	3.55026
2114.12	14.9982
2114.36	29.2443
2114.61	17.8178
2114.85	2.61469
2115.09	14.0438
2115.33	5.50757
2115.58	27.3568
2115.82	8.32947
2116.06	0.710236
2116.31	8.29227
2116.55	9.18289
2116.79	11.026
2117.03	17.6505
2117.28	10.0439
2117.52	35.6768
2117.76	0.563354
2118	4.33575
2118.25	16.6332
2118.49	17.5327
2118.73	12.7039
2118.97	5.02106
2119.22	10.6431
2119.46	14.3716
2119.7	10.5139
2119.94	7.60745
2120.19	18.9248
2120.43	16.0384
2120.67	18.869
2120.91	32.1512
2121.16	8.52393
2121.4	29.4133
2121.64	2.95438
2121.88	-4.54492
2122.13	-2.57068
2122.37	6.98917
2122.61	12.7502
2122.85	-0.47876
2123.1	10.011
2123.34	8.15652
2123.58	26.2268
2123.82	1.56134
2124.07	7.23569
2124.31	4.35489
2124.55	20.4364
2124.79	15.6064
2125.03	5.98996
2125.28	16.262
2125.52	42.6448
2125.76	-1.05099
2126	18.7378
2126.25	-2.18652
2126.49	3.41022
2126.73	16.5899
2126.97	18.4122
2127.21	11.7195
2127.46	11.6511
2127.7	-5.39597
2127.94	-1.62836
2128.18	7.80814
2128.43	3.99301
2128.67	26.6599
2128.91	11.5388
2129.15	11.5421
2129.39	13.4204
2129.64	6.77808
2129.88	7.70148
2130.12	8.63248
2130.36	15.2319
2130.6	24.6616
2130.85	8.57233
2131.09	7.59506
2131.33	16.0564
2131.57	1.8378
2131.81	11.2301
2132.06	11.1822
2132.3	7.37213
2132.54	1.66907
2132.78	15.7621
2133.02	6.26086
2133.27	14.7206
2133.51	15.6584
2133.75	19.4461
2133.99	26.0642
2134.23	6.24905
2134.48	26.0811
2134.72	9.10257
2134.96	34.5732
2135.2	12.8551
2135.44	-9.80548
2135.68	10.9366
2135.93	3.35193
2136.17	7.06592
2136.41	4.13211
2136.65	-1.62717
2136.89	0.207275
2137.14	9.64572
2137.38	19.0845
2137.62	-0.710571
2137.86	2.15024
2138.1	22.0231
2138.34	19.1636
2138.59	3.97656
2138.83	39.7198
2139.07	6.78705
2139.31	3.11859
2139.55	28.6599
2139.79	19.0497
2140.03	17.0287
2140.28	9.42566
2140.52	-6.647
2140.76	15.9154
2141	-11.4425
2141.24	1.71283
2141.49	12.0404
2141.73	12.0398
2141.97	14.7899
2142.21	-7.88614
2142.45	19.3775
2142.69	-0.395721
2142.93	3.42764
2143.18	3.47278
2143.42	10.3341
2143.66	16.7874
2143.9	5.58212
2144.14	14.0304
2144.38	12.2075
2144.62	-0.843048
2144.87	0.202057
2145.11	1.20084
2145.35	34.8495
2145.59	20.7685
2145.83	10.4334
2146.07	9.46606
2146.31	0.96814
2146.55	3.75177
2146.8	-0.983887
2147.04	14.0198
2147.28	20.5557
2147.52	31.774
2147.76	1.6503
2148	8.17621
2148.24	18.4645
2148.48	22.1718
2148.73	23.9992
2148.97	-7.98318
2149.21	21.0628
2149.45	-11.8727
2149.69	4.93402
2149.93	22.6079
2150.17	4.69751
2150.42	6.47107
2150.66	15.7666
2150.9	3.53558
2151.14	13.8283
2151.38	11.0338
2151.62	3.57916
2151.86	0.788849
2152.1	21.4597
2152.34	7.40448
2152.58	28.076
2152.83	14.8809
2153.07	-6.74664
2153.31	3.49475
2153.55	-7.82156
2153.79	11.8222
2154.03	23.9618
2154.27	1.4006
2154.51	9.7381
2154.75	11.4828
2154.99	-18.6302
2155.24	4.62628
2155.48	5.39841
2155.72	20.2383
2155.96	0.491516
2156.2	26.5589
2156.44	9.65973
2156.68	4.0051
2156.92	22.6591
2157.16	8.62399
2157.4	6.74261
2157.64	11.4239
2157.89	7.71884
2158.13	27.3912
2158.37	4.06653
2158.61	8.73923
2158.85	20.8732
2159.09	5.88718
2159.33	5.84265
2159.57	8.58813
2159.81	5.7146
2160.05	7.49945
2160.29	13.9381
2160.53	3.56552
2160.77	-3.05832
2161.01	-10.6048
2161.25	31.3366
2161.5	-7.89093
2161.74	-1.40662
2161.98	4.14301
2162.22	24.6378
2162.46	2.22968
2162.7	5.01239
2162.94	-6.20551
2163.18	11.4722
2163.42	12.3423
2163.66	8.55637
2163.9	-3.6185
2164.14	2.85468
2164.38	14.9171
2164.62	0.843262
2164.86	-4.8526
2165.11	14.6418
2165.35	4.38791
2165.59	-1.18869
2165.83	8.11533
2166.07	35.1253
2166.31	8.08597
2166.55	15.4817
2166.79	-3.20844
2167.03	-0.481842
2167.27	6.88345
2167.51	-5.29144
2167.75	-7.24844
2167.99	22.4182
2168.23	-2.88965
2168.47	-0.265015
2168.71	3.38174
2168.95	15.4394
2169.19	5.21173
2169.43	-4.06238
2169.67	2.49368
2169.91	13.7298
2170.15	1.7294
2170.39	33.4906
2170.63	13.996
2170.87	0.0354919
2171.11	-5.5957
2171.35	20.3886
2171.59	-17.834
2171.83	0.631042
2172.07	5.95746
2172.31	5.81174
2172.56	17.8081
2172.79	-4.57587
2173.04	4.64893
2173.28	19.4829
2173.51	12.0225
2173.76	14.7824
2174	5.49344
2174.24	-0.0617371
2174.48	5.52258
2174.72	7.37399
2174.96	4.56717
2175.2	0.824036
2175.44	-8.49908
2175.68	10.9728
2175.92	12.7863
2176.16	3.4584
2176.4	10.8511
2176.64	8.01199
2176.88	16.2959
2177.12	12.5346
2177.36	1.36438
2177.6	-11.6559
2177.84	-1.45566
2178.08	-7.06055
2178.32	17.0811
2178.55	2.16141
2178.8	10.4053
2179.03	-8.25644
2179.28	24.2056
2179.52	2.84171
2179.75	13.9642
2180	16.7285
2180.23	-13.9384
2180.47	12.9609
2180.71	-7.50085
2180.95	-12.1887
2181.19	5.4046
2181.43	15.5815
2181.67	0.682007
2181.91	3.40164
2182.15	17.2589
2182.39	0.510529
2182.63	-2.34171
2182.87	-4.25482
2183.11	6.82162
2183.35	3.94754
2183.59	19.6104
2183.83	-1.84
2184.07	9.18668
2184.31	0.766205
2184.55	-12.2807
2184.79	-1.20325
2185.03	9.90018
2185.27	9.90683
2185.51	0.638672
2185.75	-3.06946
2185.99	-10.4714
2186.23	-8.59018
2186.47	13.6958
2186.7	-14.0934
2186.95	15.6563
2187.18	17.5895
2187.42	-4.61295
2187.66	1.95419
2187.9	8.50049
2188.14	17.7802
2188.38	3.78519
2188.62	12.9854
2188.86	-3.81943
2189.1	11.8617
2189.34	-0.311554
2189.58	15.3407
2189.82	-1.4938
2190.06	15.0758
2190.3	2.02423
2190.54	5.69019
2190.78	6.5968
2191.01	26.0665
2191.25	14.0153
2191.49	13.9872
2191.73	1.92545
2191.97	0.0706787
2192.21	-0.854858
2192.45	3.78336
2192.69	14.9132
2192.93	3.78479
2193.17	23.2964
2193.41	17.7621
2193.65	-5.4122
2193.89	1.13092
2194.13	19.8197
2194.36	25.5364
2194.6	22.8354
2194.84	3.34671
2195.08	2.37024
2195.32	2.30234
2195.56	2.23984
2195.8	13.3101
2196.04	-20.2402
2196.28	-15.713
2196.52	-1.92422
2196.76	8.15143
2197	11.7502
2197.23	21.8613
2197.47	15.2795
2197.71	2.21387
2197.95	28.1572
2198.19	11.4428
2198.43	-6.17499
2198.67	25.4217
2198.91	5.06445
2199.15	-6.93332
2199.38	-5.9216
2199.62	18.2986
2199.86	4.44537
2200.1	-4.76904
2200.34	43.7241
2200.58	2.94992
2200.82	-3.44034
2201.06	38.5786
2201.3	16.2985
2201.54	-2.28397
2201.77	8.72891
2202.01	-12.122
2202.25	9.45801
2202.49	27.4853
2202.73	2.63242
2202.97	-7.97064
2203.21	16.4399
2203.45	11.6622
2203.68	18.9993
2203.92	25.79
2204.16	29.7151
2204.4	22.7133
2204.64	26.3859
2204.88	4.03537
2205.12	21.4828
2205.36	20.2069
2205.59	5.94269
2205.83	0.14563
2206.07	5.6441
2206.31	14.9193
2206.55	1.02057
2206.79	4.72229
2207.03	-0.0804443
2207.26	10.1373
2207.5	3.65005
2207.74	14.8432
2207.98	9.30466
2208.22	24.2358
2208.46	20.5606
2208.7	28.9808
2208.93	0.156158
2209.17	18.7977
2209.41	6.69919
2209.65	-2.62186
2209.89	32.741
2210.13	5.6937
2210.36	0.0888367
2210.6	-5.48633
2210.84	22.4794
2211.08	20.6444
2211.32	18.8087
2211.56	-1.67181
2211.8	13.2704
2212.03	-3.46704
2212.27	20.8234
2212.51	15.2512
2212.75	8.7186
2212.99	29.1881
2213.23	16.0648
2213.46	10.4068
2213.7	-3.66385
2213.94	4.64001
2214.18	16.751
2214.42	21.4544
2214.66	22.5052
2214.89	20.748
2215.13	-22.1799
2215.37	5.82401
2215.61	-0.717316
2215.85	6.73856
2216.08	19.7901
2216.32	-11.0474
2216.56	13.1949
2216.8	13.1573
2217.04	17.7813
2217.28	14.0051
2217.51	-15.8979
2217.75	-6.57785
2217.99	-4.72339
2218.23	6.45154
2218.47	-0.115967
2218.7	-9.46631
2218.94	-1.05759
2219.18	-3.84048
2219.42	23.2795
2219.66	11.173
2219.9	-1.89758
2220.13	2.78922
2220.37	-12.1584
2220.61	8.3678
2220.85	6.45627
2221.09	4.54782
2221.32	-11.3994
2221.56	9.98434
2221.8	27.6106
2222.04	0.4245
2222.27	-9.00214
2222.51	-5.33615
2222.75	-11.9066
2222.99	-6.30878
2223.23	3.98233
2223.46	4.00592
2223.7	-6.23685
2223.94	4.09131
2224.18	-2.37723
2224.42	-2.30087
2224.65	-6.90707
2224.89	-18.0756
2225.13	-0.256897
2225.37	-5.82486
2225.6	-0.153381
2225.84	-11.3182
2226.08	5.58466
2226.32	-4.67267
2226.56	12.2374
2226.79	-10.2228
2227.03	2.00549
2227.27	-7.32852
2227.51	6.76288
2227.74	1.15295
2227.98	-4.47583
2228.22	3.93106
2228.46	-7.37164
2228.69	10.3948
2228.93	6.59637
2229.17	-3.75873
2229.41	-3.80093
2229.64	23.3615
2229.88	-8.48206
2230.12	-1.85516
2230.36	12.2738
2230.6	-0.8237
2230.83	3.90936
2231.07	-8.24783
2231.31	-9.14035
2231.55	20.9644
2231.78	13.5133
2232.02	-2.41452
2232.26	12.6652
2232.5	-21.1267
2232.73	6.17624
2232.97	14.6794
2233.21	0.616119
2233.45	-0.286163
2233.68	23.2743
2233.92	-5.8522
2234.16	-4.8862
2234.39	5.48358
2234.63	4.50198
2234.87	4.45291
2235.11	12.8603
2235.34	-3.21875
2235.58	11.6916
2235.82	-7.22485
2236.06	15.3299
2236.29	1.21786
2236.53	7.79907
2236.77	6.8577
2237	10.6135
2237.24	-3.4975
2237.48	3.14697
2237.72	3.19873
2237.95	20.2547
2238.19	-5.04556
2238.43	-1.17001
2238.67	-7.69412
2238.9	-8.56989
2239.14	-12.2617
2239.38	1.04407
2239.61	0.105011
2239.85	11.3776
2240.09	-0.00671387
2240.33	6.48218
2240.56	24.2933
2240.8	14.8067
2241.04	4.56451
2241.27	-7.58829
2241.51	0.906799
2241.75	-9.46783
2241.99	6.58237
2242.22	-0.962524
2242.46	1.88129
2242.7	-20.7523
2242.93	0.0391846
2243.17	24.5756
2243.41	1.88846
2243.64	4.65924
2243.88	-2.95798
2244.12	5.49387
2244.36	0.749847
2244.59	16.7888
2244.83	7.38867
2245.07	-15.1852
2245.3	20.8237
2245.54	-16.8569
2245.78	10.6123
2246.01	11.6115
2246.25	-11.0219
2246.49	38.2087
2246.72	-2.41516
2246.96	0.442413
2247.2	-7.0892
2247.43	19.4439
2247.67	-4.19281
2247.91	0.541412
2248.14	-9.88681
2248.38	-4.23807
2248.62	1.40732
2248.85	14.6223
2249.09	-6.22675
2249.33	11.7208
2249.56	13.5874
2249.8	-8.12943
2250.04	12.722
2250.27	7.97488
2250.51	-2.48929
2250.75	12.5741
2250.98	27.6277
2251.22	4.83206
2251.46	2.86807
2251.69	19.828
2251.93	-0.0552673
2252.17	-16.125
2252.4	-1.91574
2252.64	-4.71005
2252.88	-1.81418
2253.11	-1.71619
2253.35	1.29654
2253.59	5.20587
2253.82	-4.17477
2254.06	2.52963
2254.3	-11.6331
2254.53	-10.6296
2254.77	5.52597
2255.01	-12.4902
2255.24	6.43338
2255.48	-11.5714
2255.72	2.64664
2255.95	-16.3112
2256.19	-8.71759
2256.42	0.816803
2256.66	5.61807
2256.9	16.1088
2257.13	-4.71579
2257.37	1.02997
2257.61	0.130859
2257.84	-2.66949
2258.08	4.95929
2258.32	3.07556
2258.55	15.4321
2258.79	-14.9393
2259.02	5.03433
2259.26	-0.619934
2259.5	-10.0735
2259.73	2.30814
2259.97	0.433319
2260.2	5.22223
2260.44	3.35532
2260.68	-0.415466
2260.91	10.0727
2261.15	5.37067
2261.39	1.67374
2261.62	-5.86655
2261.86	13.1773
2262.1	0.828613
2262.33	-0.0949402
2262.57	-7.6796
2262.8	8.54831
2263.04	-18.0353
2263.28	-6.53638
2263.51	6.88742
2263.75	-13.015
2263.98	0.444092
2264.22	-11.8172
2264.46	10.2483
2264.69	3.69107
2264.93	29.5655
2265.16	-0.896637
2265.4	17.3206
2265.64	1.14902
2265.87	-6.47809
2266.11	-16.9688
2266.34	16.4415
2266.58	-16.1018
2266.81	-19.0373
2267.05	-0.0209351
2267.29	-4.862
2267.52	-15.408
2267.76	-11.6345
2267.99	18.8442
2268.23	10.1879
2268.47	-2.26102
2268.7	7.25955
2268.94	-16.5606
2269.17	-6.97345
2269.41	17.9044
2269.65	1.78549
2269.88	-6.70026
2270.12	0.0890808
2270.35	10.7198
2270.59	-9.22479
2270.82	14.7354
2271.06	9.05466
2271.3	-6.15524
2271.53	2.5177
2271.77	-8.9039
2272	13.1482
2272.24	0.789398
2272.47	5.61777
2272.71	6.59238
2272.95	-2.94806
2273.18	11.4324
2273.42	12.4211
2273.65	-14.3422
2273.89	-10.4853
2274.12	10.599
2274.36	-9.4696
2274.6	-11.3563
2274.83	11.6458
2275.07	4.97754
2275.3	-9.34482
2275.54	11.7494
2275.77	-3.53339
2276.01	7.95892
2276.24	12.8123
2276.48	2.37427
2276.72	-12.8557
2276.95	5.43805
2277.18	-14.6059
2277.42	4.6561
2277.66	23.9649
2277.89	-3.70615
2278.13	-0.680206
2278.36	-5.32129
2278.6	-2.37335
2278.83	-21.5403
2279.07	9.2153
2279.3	-20.5536
2279.54	-2.3093
2279.78	7.25043
2280.01	11.913
2280.24	8.95117
2280.48	19.4283
2280.72	9.77396
2280.95	10.6846
2281.19	10.6537
2281.42	-9.492
2281.66	13.4903
2281.89	5.80991
2282.13	20.2462
2282.36	14.5412
2282.6	-11.2739
2282.83	-5.43472
2283.07	-1.49881
2283.3	-2.35959
2283.54	3.51572
2283.77	-8.80856
2284.01	9.61688
2284.24	6.90265
2284.48	19.586
2284.71	12.9729
2284.95	30.3501
2285.19	2.55969
2285.42	7.47101
2285.65	-2.10211
2285.89	-5.91739
2286.12	-12.6989
2286.36	-8.94928
2286.59	-0.278534
2286.83	-4.07556
2287.06	-2.07147
2287.3	7.73541
2287.54	-21.9536
2287.77	-2.61945
2288	3.22263
2288.24	-8.21884
2288.47	5.27161
2288.71	23.5488
2288.94	-10.1859
2289.18	8.07861
2289.41	3.18854
2289.65	7.90115
2289.88	29.9365
2290.12	2.8898
2290.35	7.67752
2290.59	9.59448
2290.82	3.85709
2291.06	12.5461
2291.29	-15.257
2291.53	15.6346
2291.76	-6.34631
2292	9.15628
2292.23	15.9846
2292.47	11.263
2292.7	17.1383
2292.94	-6.82465
2293.17	13.51
2293.41	-0.849548
2293.64	-18.1135
2293.88	3.15729
2294.11	7.06491
2294.34	15.7458
2294.58	-1.60925
2294.81	10.8981
2295.05	18.5723
2295.28	-3.59869
2295.52	0.241333
2295.75	8.89389
2295.99	0.214539
2296.22	1.17136
2296.46	0.16449
2296.69	-5.71057
2296.93	16.4331
2297.16	3.02725
2297.39	12.7333
2297.63	1.28336
2297.86	4.28342
2298.1	9.22977
2298.33	-6.03006
2298.57	2.75018
2298.8	7.65311
2299.04	2.93829
2299.27	5.95471
2299.51	0.279205
2299.74	24.4893
2299.97	10.0924
2300.21	2.40753
2300.44	6.30563
2300.68	-5.24069
2300.91	-3.23483
2301.15	13.2639
2301.38	5.62643
2301.61	8.59897
2301.85	4.80026
2302.08	-2.87546
2302.32	25.1453
2302.55	17.4307
2302.79	-0.891083
2303.02	-13.3905
2303.25	4.01373
2303.49	20.4408
2303.72	-7.51178
2303.96	6.04547
2304.19	-14.15
2304.43	-9.2283
2304.66	-6.23978
2304.89	-6.16248
2305.13	14.2071
2305.36	5.62054
2305.6	24.0559
2305.83	7.69052
2306.07	12.591
2306.3	-4.71793
2306.53	15.6605
2306.77	19.5837
2307	5.13403
2307.24	6.13779
2307.47	21.6334
2307.7	16.8107
2307.94	16.8089
2308.17	1.36447
2308.41	12.9701
2308.64	0.424011
2308.87	16.8899
2309.11	2.45609
2309.34	-0.349701
2309.58	7.48166
2309.81	12.4435
2310.04	18.3979
2310.28	-4.69785
2310.51	-0.753113
2310.75	21.55
2310.98	13.8439
2311.21	-12.2662
2311.45	1.24152
2311.68	-6.63797
2311.92	-1.97504
2312.15	-4.94498
2312.38	-6.91489
2312.62	4.66302
2312.85	-2.10794
2313.08	-2.10748
2313.32	2.75577
2313.55	-8.74127
2313.79	10.707
2314.02	7.98737
2314.25	6.19995
2314.49	0.546051
2314.72	11.3242
2314.95	28.9024
2315.19	24.2322
2315.42	19.5004
2315.66	11.7138
2315.89	9.73801
2316.12	10.6798
2316.36	31.8951
2316.59	4.69284
2316.82	-5.01642
2317.06	7.53378
2317.29	-4.01675
2317.52	5.70071
2317.76	14.455
2317.99	17.4892
2318.23	8.90033
2318.46	12.6917
2318.69	3.0217
2318.93	8.81415
2319.16	16.527
2319.39	0.103546
2319.63	2.99313
2319.86	2.99982
2320.09	-14.3498
2320.33	15.6074
2320.56	1.18594
2320.79	8.94632
2321.03	11.9174
2321.26	16.8379
2321.5	14.0428
2321.73	6.42581
2321.96	7.50772
2322.2	3.78235
2322.43	12.6267
2322.66	-6.57373
2322.9	17.6697
2323.13	-3.57135
2323.36	16.7874
2323.6	11.0543
2323.83	14.0168
2324.06	17.9501
2324.3	21.8706
2324.53	5.45862
2324.76	9.35187
2325	10.2764
2325.23	16.9764
2325.46	13.0287
2325.7	11.0573
2325.93	14.8929
2326.16	35.139
2326.4	21.5902
2326.63	41.8201
2326.86	23.4467
2327.09	36.9141
2327.33	6.97586
2327.56	16.5808
2327.79	33.921
2328.03	40.6454
2328.26	89.7951
2328.49	96.6008
2328.73	74.4727
2328.96	76.4481
2329.19	40.7472
2329.43	95.6324
2329.66	43.5395
2329.89	24.2771
2330.13	55.1176
2330.36	34.9757
2330.59	4.16281
2330.82	3.20715
2331.06	11.8784
2331.29	10.9377
2331.52	5.21698
2331.76	-14.9275
2331.99	-5.20786
2332.22	18.0306
2332.46	13.1514
2332.69	10.2264
2332.92	33.3223
2333.16	19.8235
2333.39	4.40393
2333.62	18.8328
2333.85	10.1619
2334.09	19.7852
2334.32	0.519806
2334.55	21.662
2334.79	-4.37253
2335.02	0.41626
2335.25	19.6445
2335.48	11.9669
2335.72	10.052
2335.95	1.43726
2336.18	22.645
2336.41	12.0812
2336.65	16.8789
2336.88	10.1511
2337.11	5.35336
2337.34	14.018
2337.58	14.0247
2337.81	23.6475
2338.04	3.45297
2338.28	19.7933
2338.51	13.0708
2338.74	5.38611
2338.97	11.1637
2339.21	20.8085
2339.44	-5.11609
2339.67	-0.292145
2339.91	2.5997
2340.14	5.47412
2340.37	-4.15967
2340.6	33.275
2340.84	3.44836
2341.07	36.0457
2341.3	3.31238
2341.53	13.7791
2341.77	7.90564
2342	10.6994
2342.23	15.4457
2342.46	17.3179
2342.7	14.4001
2342.93	4.78555
2343.16	2.85815
2343.39	5.73651
2343.63	13.4174
2343.86	-14.3893
2344.09	29.6974
2344.32	9.57928
2344.56	13.4427
2344.79	-0.920197
2345.02	35.5027
2345.25	13.4352
2345.49	5.73398
2345.72	-0.0682373
2345.95	23.7991
2346.18	9.36597
2346.41	16.9639
2346.65	14.0645
2346.88	13.0857
2347.11	1.57501
2347.34	12.0745
2347.58	8.21347
2347.81	12.0306
2348.04	9.15976
2348.27	16.8336
2348.5	6.33331
2348.74	-8.01398
2348.97	18.7899
2349.2	-6.15094
2349.43	16.7624
2349.67	-13.0649
2349.9	4.96246
2350.13	23.9037
2350.36	-3.07764
2350.59	9.08215
2350.83	8.62692
2351.06	-13.04
2351.29	17.9388
2351.52	16.2357
2351.75	18.4856
2351.99	30.1749
2352.22	10.6638
2352.45	-1.73849
2352.68	18.3228
2352.91	6.63632
2353.15	-7.99393
2353.38	6.9903
2353.61	-1.52847
2353.84	10.7955
2354.07	3.07861
2354.31	13.5267
2354.54	-13.1891
2354.77	1.14328
2355	4.04343
2355.23	-1.72226
2355.47	12.5093
2355.7	1.95837
2355.93	-13.3575
2356.16	-10.5802
2356.39	16.9395
2356.63	0.59726
2356.86	-0.557434
2357.09	17.3437
2357.32	5.81018
2357.55	-0.00360107
2357.79	3.69299
2358.02	-6.86646
2358.25	-12.67
2358.48	3.39658
2358.71	-2.38895
2358.94	5.08215
2359.18	-1.66232
2359.41	7.75201
2359.64	-4.67947
2359.87	1.86462
2360.1	6.48929
2360.33	-3.1449
2360.57	-2.34106
2360.8	-4.38531
2361.03	11.5961
2361.26	1.00815
2361.49	0.851654
2361.72	-10.684
2361.96	3.37448
2362.19	23.1075
2362.42	-15.9146
2362.65	2.86093
2362.88	1.75336
2363.11	-10.7075
2363.34	6.1846
2363.58	21.1844
2363.81	-2.60519
2364.04	0.103485
2364.27	-3.81458
2364.5	-7.74243
2364.73	12.918
2364.97	-8.03781
