#Acq. time (s)=	40
#Accumulations=	2
#Range (cm-¹)=	1200...2365
#Windows=	3
#Auto scanning=	Off
#Autofocus=	Off
#Macrospot=	Off
#AutoExposure=	Off
#Spike filter=	Multiple accum.
#Delay time (s)=	2
#Binning=	1
#Readout mode=	Signal
#DeNoise=	Off
#ICS correction=	On
#Dark correction=	Off
#Inst. Process=	Off
#Detector Gain=	Best Dynamic
#Detector ADC=	50 kHz EM
#Detector EM gain=	400
#Detector temperature (°C)=	-60.09
#Instrument=	LabRAM HR Evol
#Detector=	SIN-EM FIVIS
#Objective=	x100_VIS_LWD
#Grating=	1800 (450-850nm)
#ND Filter=	100%
#Laser=	532nm_Edge
#Hole=	30.0125
#Temperature=	0
#Range=	Visible
#StageXY=	75x50mm Scan+
#StageZ=	Z motor
#X (µm)=	0
#Y (µm)=	0
#Z (µm)=	10.2
#Full time(mm:ss)=	4:24
#Project=	21_11_26
#Sample=	BU32
#Site=	
#Title=	BU32-A-incC-FI03-V_1800 (450-850nm)_532nm_Edge_100%_x100_VIS_LWD_H30um_40sX2
#Remark=	
#Date=	26.11.2021 18:11
#Acquired=	26.11.2021 18:11:05
#Base:Fit=	16.12.2021 14:46:20
#Base:Sub=	16.12.2021 14:46:22
1202.72	-3.4715
1203	36.299
1203.28	18.4633
1203.56	28.1611
1203.84	-4.19846
1204.11	-23.4824
1204.39	7.81183
1204.67	-19.8173
1204.95	-0.115692
1205.23	-22.4875
1205.5	3.42038
1205.78	2.43854
1206.06	32.5627
1206.34	-14.6094
1206.61	1.54691
1206.89	-4.82758
1207.17	35.9507
1207.45	-8.95523
1207.73	14.7619
1208	14.9196
1208.28	44.0153
1208.56	35.6199
1208.84	-33.8041
1209.11	2.71033
1209.39	-35.6393
1209.67	1.99435
1209.95	-10.5901
1210.23	-11.4388
1210.5	12.2423
1210.78	4.82062
1211.06	-14.3358
1211.34	-5.6868
1211.61	30.6773
1211.89	-24.6981
1212.17	15.899
1212.45	13.8291
1212.72	16.0765
1213	9.78851
1213.28	26.9312
1213.56	-7.00259
1213.83	-11.079
1214.11	5.03232
1214.39	20.1988
1214.67	5.54871
1214.94	11.1136
1215.22	27.3134
1215.5	-0.153503
1215.78	-1.01086
1216.05	-18.9156
1216.33	17.3799
1216.61	-25.119
1216.89	1.49908
1217.16	-11.2191
1217.44	-6.88638
1217.72	17.6365
1218	-5.64786
1218.27	11.4512
1218.55	8.37653
1218.83	9.55341
1219.1	18.2007
1219.38	-9.2092
1219.66	20.6668
1219.94	-8.88858
1220.21	-18.307
1220.49	-2.20468
1220.77	14.9731
1221.04	-3.93982
1221.32	30.1523
1221.6	-14.2667
1221.88	3.875
1222.15	7.11798
1222.43	-18.2928
1222.71	13.4673
1222.98	1.78226
1223.26	7.04495
1223.54	-32.099
1223.81	-9.89041
1224.09	2.82062
1224.37	19.7452
1224.65	-15.0302
1224.92	-21.2638
1225.2	-30.638
1225.48	10.7011
1225.76	22.5549
1226.03	14.3413
1226.31	1.91229
1226.59	15.7921
1226.86	32.8289
1227.14	-13.5341
1227.42	20.3392
1227.69	24.486
1227.97	12.6022
1228.25	-10.6817
1228.52	18.7067
1228.8	23.6816
1229.08	-13.2966
1229.35	44.6271
1229.63	1.7977
1229.91	-8.66925
1230.18	6.89093
1230.46	-17.6175
1230.74	38.2098
1231.01	-6.86774
1231.29	-14.3413
1231.57	-5.59595
1231.84	-3.25333
1232.12	4.25125
1232.4	-23.9793
1232.67	-6.01431
1232.95	-4.82007
1233.23	14.218
1233.5	-12.9875
1233.78	1.85886
1234.06	-2.16769
1234.33	-5.12885
1234.61	7.67325
1234.89	20.499
1235.16	-11.8576
1235.44	-8.52414
1235.71	36.8642
1235.99	-10.242
1236.27	4.65741
1236.54	7.9458
1236.82	1.72159
1237.1	38.5788
1237.37	-40.206
1237.65	1.81393
1237.93	11.2394
1238.2	-10.8353
1238.48	16.4247
1238.76	4.85129
1239.03	-7.72748
1239.31	9.10492
1239.58	-6.55219
1239.86	-22.1919
1240.14	10.4053
1240.41	-1.0105
1240.69	-32.3294
1240.97	22.3174
1241.24	23.5177
1241.52	-3.59543
1241.79	-3.51044
1242.07	13.3013
1242.35	-14.9214
1242.62	34.462
1242.9	3.17456
1243.18	21.1787
1243.45	0.396759
1243.73	-11.0204
1244	-21.381
1244.28	9.16779
1244.56	-5.39679
1244.83	-12.6467
1245.11	3.14862
1245.39	5.26178
1245.66	-13.5963
1245.94	-32.4859
1246.21	-8.4317
1246.49	26.1629
1246.76	46.1246
1247.04	29.4905
1247.32	-5.9968
1247.59	-13.251
1247.87	1.50073
1248.14	10.9786
1248.42	64.2664
1248.7	15.1165
1248.97	25.6584
1249.25	-2.44659
1249.52	9.19656
1249.8	-18.9697
1250.08	16.6795
1250.35	30.3844
1250.63	4.24442
1250.9	-21.907
1251.18	-13.5398
1251.45	-6.21039
1251.73	9.48367
1252.01	17.8604
1252.28	-32.2578
1252.56	13.7084
1252.83	-23.8653
1253.11	-10.289
1253.39	-13.4072
1253.66	22.1247
1253.94	19.0902
1254.21	12.997
1254.49	-8.74362
1254.76	24.8554
1255.04	16.634
1255.31	6.28415
1255.59	14.7652
1255.87	7.54587
1256.14	-7.005
1256.42	6.67944
1256.69	-0.50592
1256.97	20.5377
1257.24	-12.7771
1257.52	-16.8908
1257.79	43.707
1258.07	-3.24155
1258.35	-6.32187
1258.62	8.34396
1258.9	4.20114
1259.17	4.1796
1259.45	1.12134
1259.72	1.25659
1260	30.6356
1260.27	-16.0839
1260.55	12.0792
1260.82	22.4886
1261.1	22.4009
1261.37	9.84833
1261.65	-3.70529
1261.92	-5.65121
1262.2	-10.4026
1262.48	-26.4842
1262.75	21.9811
1263.02	1.45062
1263.3	12.4671
1263.58	12.3348
1263.85	-10.1048
1264.13	8.05997
1264.4	8.56076
1264.68	-16.2428
1264.95	-19.5732
1265.23	20.1123
1265.5	-0.717743
1265.78	11.8574
1266.05	-2.78033
1266.33	6.69348
1266.6	42.3258
1266.88	18.4254
1267.15	-20.0921
1267.43	0.987305
1267.7	-18.694
1267.98	47.4042
1268.25	-7.82651
1268.53	29.0774
1268.8	4.18295
1269.08	47.2867
1269.35	-17.5214
1269.63	23.4642
1269.9	13.0264
1270.18	5.66028
1270.45	25.4869
1270.73	47.44
1271	1.33215
1271.28	4.46106
1271.55	14.9612
1271.83	12.8722
1272.1	23.4353
1272.38	-0.465332
1272.65	17.521
1272.93	18.8081
1273.2	-13.4849
1273.47	13.9355
1273.75	39.2766
1274.03	6.96359
1274.3	23.9236
1274.57	7.27997
1274.85	23.0969
1275.12	-0.986145
1275.4	20.0549
1275.67	14.9208
1275.95	48.6304
1276.22	17.2949
1276.5	8.0177
1276.77	28.1059
1277.05	12.5053
1277.32	6.32626
1277.6	-7.16074
1277.87	32.9293
1278.14	45.712
1278.42	-18.2538
1278.69	15.5257
1278.97	11.5068
1279.24	13.7404
1279.52	38.0678
1279.79	28.6305
1280.07	16.0262
1280.34	24.4418
1280.61	-7.07156
1280.89	26.6749
1281.16	6.789
1281.44	2.74683
1281.71	30.3044
1281.99	8.31787
1282.26	6.25723
1282.53	10.5638
1282.81	-5.12308
1283.08	24.332
1283.36	12.5839
1283.63	-1.42404
1283.91	14.2303
1284.18	11.1203
1284.45	13.5142
1284.73	9.23541
1285	33.604
1285.28	5.19666
1285.55	12.4051
1285.83	28.0937
1286.1	-8.69571
1286.37	-9.60449
1286.65	22.0351
1286.92	11.4709
1287.2	-13.7536
1287.47	18.9075
1287.75	12.5751
1288.02	-0.084137
1288.29	-8.50043
1288.57	14.6966
1288.84	-18.9181
1289.12	-3.05164
1289.39	11.7992
1289.66	2.45346
1289.94	14.1664
1290.21	-13.0744
1290.49	2.84854
1290.76	11.3224
1291.03	-16.0643
1291.31	-11.8267
1291.58	13.4918
1291.86	5.10907
1292.13	-22.2428
1292.4	20.989
1292.68	7.37347
1292.95	-2.08374
1293.22	0.0352173
1293.5	0.104492
1293.77	2.40063
1294.05	-13.1807
1294.32	10.2428
1294.59	29.323
1294.87	3.00714
1295.14	12.5126
1295.42	39.0059
1295.69	16.0404
1295.96	-13.2257
1296.24	-5.48221
1296.51	7.42453
1296.79	12.8016
1297.06	18.1439
1297.33	-15.6812
1297.61	11.7659
1297.88	10.6631
1298.15	12.7189
1298.43	33.7652
1298.7	16.9672
1298.97	10.6394
1299.25	11.6658
1299.52	21.1505
1299.79	15.8434
1300.07	-13.6729
1300.34	20.2289
1300.62	9.7612
1300.89	26.7115
1301.16	9.84042
1301.44	10.9231
1301.71	26.8268
1301.98	22.724
1302.25	-9.90341
1302.53	7.07721
1302.8	-1.31741
1303.08	4.00153
1303.35	42.041
1303.62	11.4035
1303.9	17.7019
1304.17	-21.3407
1304.44	1.94217
1304.72	3.04163
1304.99	-18.0404
1305.26	-5.37918
1305.54	4.08813
1305.81	10.3633
1306.08	-1.30096
1306.35	4.96478
1306.63	2.81067
1306.9	5.97766
1307.18	-14.0194
1307.45	-3.39331
1307.72	-2.28415
1308	25.1746
1308.27	2.00885
1308.54	-1.09018
1308.81	-20.0596
1309.09	-17.886
1309.36	-1.95474
1309.63	-0.79718
1309.91	-23.9086
1310.18	28.939
1310.45	-25.9091
1310.73	16.3165
1311	10.0265
1311.27	10.0867
1311.55	4.87479
1311.82	10.213
1312.09	9.23471
1312.37	1.96237
1312.64	-12.715
1312.91	41.2073
1313.18	2.15985
1313.46	-7.36981
1313.73	16.9367
1314	-3.11948
1314.28	-8.38788
1314.55	-32.6252
1314.82	15.9963
1315.09	11.8587
1315.37	-22.8875
1315.64	-3.79065
1315.91	19.5405
1316.18	-18.3845
1316.46	0.64975
1316.73	-4.61792
1317	14.4138
1317.28	30.2826
1317.55	-12.9761
1317.82	0.855072
1318.09	-43.4279
1318.37	-1.10699
1318.64	42.2646
1318.91	33.864
1319.18	-10.4656
1319.46	-15.7197
1319.73	17.052
1320	20.2449
1320.28	12.9206
1320.55	7.68399
1320.82	20.3767
1321.09	16.1264
1321.37	29.7946
1321.64	-19.9149
1321.91	-5.22974
1322.18	-3.15616
1322.46	-6.40216
1322.73	-4.31046
1323	24.1449
1323.27	-3.29892
1323.55	21.9607
1323.82	10.4548
1324.09	-0.0302429
1324.36	21.1064
1324.64	14.8059
1324.91	33.8331
1325.18	10.6623
1325.45	5.45816
1325.73	21.1995
1326	16.8207
1326.27	5.01849
1326.54	20.5346
1326.81	18.3381
1327.09	9.92752
1327.36	10.1145
1327.63	16.7637
1327.9	-15.6943
1328.18	10.8371
1328.45	1.56015
1328.72	3.87833
1328.99	24.1011
1329.27	-0.0826416
1329.54	-18.0301
1329.81	-10.5609
1330.08	13.7264
1330.35	6.34583
1330.63	20.0416
1330.9	3.12527
1331.17	5.17102
1331.44	20.8918
1331.71	13.3815
1331.99	29.0255
1332.26	-16.3645
1332.53	-2.75674
1332.8	-18.6294
1333.07	8.61725
1333.35	-12.5285
1333.62	-3.1644
1333.89	23.0168
1334.16	0.866241
1334.43	10.2391
1334.71	1.76361
1334.98	11.1462
1335.25	17.391
1335.52	-13.0851
1335.79	27.7919
1336.07	8.87131
1336.34	15.1311
1336.61	-9.0126
1336.88	24.5217
1337.15	7.73618
1337.43	17.1694
1337.7	18.2202
1337.97	20.3077
1338.24	37.0018
1338.51	51.6004
1338.78	-28.0311
1339.06	2.31219
1339.33	33.7195
1339.6	-4.99561
1339.87	5.53232
1340.14	44.343
1340.42	-23.6742
1340.69	27.6972
1340.96	7.85477
1341.23	28.8322
1341.5	35.136
1341.77	-17.2133
1342.04	46.6508
1342.32	1.60049
1342.59	-13.104
1342.86	37.0525
1343.13	32.7876
1343.4	44.2702
1343.67	31.7251
1343.95	9.78821
1344.22	43.2924
1344.49	20.3337
1344.76	29.788
1345.03	38.1537
1345.3	38.1188
1345.58	26.5566
1345.85	37.95
1346.12	-6.00647
1346.39	55.5127
1346.66	13.5576
1346.93	42.6781
1347.2	55.0978
1347.47	22.658
1347.75	17.3615
1348.02	21.4914
1348.29	15.2218
1348.56	5.84476
1348.83	29.825
1349.1	52.7196
1349.37	1.62341
1349.65	4.70624
1349.92	45.2848
1350.19	18.1693
1350.46	7.72211
1350.73	24.3384
1351	32.5952
1351.27	46.0458
1351.54	31.4482
1351.81	13.6942
1352.09	31.3804
1352.36	-14.3374
1352.63	3.43234
1352.9	22.2911
1353.17	45.3618
1353.44	21.5445
1353.71	12.5937
1353.98	44.3208
1354.25	28.298
1354.53	49.4991
1354.8	-2.89188
1355.07	6.54959
1355.34	21.1764
1355.61	8.59766
1355.88	10.6385
1356.15	23.2971
1356.42	40.0002
1356.69	24.3615
1356.96	-3.68433
1357.24	18.1331
1357.51	33.7102
1357.78	27.4636
1358.05	37.8185
1358.32	-4.77716
1358.59	-0.658478
1358.86	34.594
1359.13	37.6564
1359.4	2.34366
1359.67	19.957
1359.94	35.4986
1360.22	30.2397
1360.49	36.3672
1360.76	20.7402
1361.03	-1.05426
1361.3	11.3861
1361.57	18.6743
1361.84	44.5965
1362.11	12.5058
1362.38	-10.2858
1362.65	15.6019
1362.92	24.9218
1363.19	39.4461
1363.46	20.8816
1363.73	1.32605
1364	19.032
1364.28	23.2756
1364.55	64.7502
1364.82	-8.77988
1365.09	39.8984
1365.36	25.363
1365.63	7.70789
1365.9	12.8253
1366.17	14.8406
1366.44	18.9255
1366.71	38.5186
1366.98	7.40836
1367.25	25.9106
1367.52	-14.4221
1367.79	24.8535
1368.06	6.35364
1368.33	38.4755
1368.6	8.57159
1368.87	17.9477
1369.15	30.4258
1369.41	38.7803
1369.68	-6.63806
1369.95	51.2545
1370.23	46.0774
1370.5	8.85825
1370.77	41.8597
1371.04	33.5792
1371.31	30.4418
1371.58	-20.2446
1371.85	38.5156
1372.12	-14.2545
1372.39	41.3435
1372.66	34.0085
1372.93	-11.4305
1373.2	8.13135
1373.47	22.55
1373.74	3.99014
1374.01	8.1142
1374.28	17.3976
1374.55	25.6554
1374.82	34.9448
1375.09	37.016
1375.36	23.6142
1375.63	8.22745
1375.9	32.0232
1376.17	47.5119
1376.44	29.0412
1376.71	37.2125
1376.98	36.1172
1377.25	54.541
1377.52	46.1584
1377.79	26.7116
1378.06	42.3144
1378.33	71.3799
1378.6	36.6419
1378.87	78.1762
1379.14	50.4701
1379.41	79.3679
1379.68	51.5163
1379.95	52.5269
1380.22	78.2383
1380.49	76.0111
1380.76	61.248
1381.03	49.7564
1381.3	52.713
1381.57	57.982
1381.84	46.5945
1382.11	72.1199
1382.38	88.3589
1382.65	82.032
1382.92	79.8438
1383.19	78.6736
1383.46	77.5554
1383.73	119.505
1384	83.5696
1384.27	42.5375
1384.54	77.4601
1384.81	39.6144
1385.08	74.6147
1385.34	15.3026
1385.61	80.1733
1385.88	57.7726
1386.15	27.1256
1386.42	67.2807
1386.69	37.6449
1386.96	50.0631
1387.23	68.5934
1387.5	84.6729
1387.77	46.8683
1388.04	31.8059
1388.31	75.5398
1388.58	76.1711
1388.85	35.9992
1389.12	34.5529
1389.39	30.7809
1389.66	44.2143
1389.93	10.4306
1390.2	10.3347
1390.46	16.2025
1390.73	20.194
1391	16.1264
1391.27	60.071
1391.54	24.2087
1391.81	-1.4017
1392.08	-10.6686
1392.35	33.3189
1392.62	16.8827
1392.89	14.8107
1393.16	37.3231
1393.43	12.7534
1393.7	26.0655
1393.97	44.4965
1394.23	7.66748
1394.5	11.7808
1394.77	5.66473
1395.04	22.0689
1395.31	-1.36932
1395.58	21.2673
1395.85	35.7004
1396.12	28.6072
1396.39	8.17126
1396.66	30.7034
1396.93	6.13861
1397.2	29.6702
1397.46	-8.21844
1397.73	19.3747
1398	13.2468
1398.27	20.4524
1398.54	28.716
1398.81	-9.03146
1399.08	6.39423
1399.35	1.35181
1399.62	-1.59579
1399.89	7.7114
1400.16	15.9915
1400.42	28.3207
1400.69	-20.7015
1400.96	21.4308
1401.23	-18.4036
1401.5	-11.1995
1401.77	-8.02682
1402.04	-21.2926
1402.31	16.799
1402.58	11.9715
1402.84	1.00354
1403.11	0.214386
1403.38	20.9289
1403.65	22.0743
1403.92	12.8906
1404.19	26.1975
1404.46	-0.673096
1404.73	-6.71573
1404.99	23.0515
1405.26	-1.56836
1405.53	-19.0257
1405.8	27.0971
1406.07	29.1213
1406.34	-10.878
1406.61	-6.76886
1406.87	-8.79959
1407.14	17.921
1407.41	11.8543
1407.68	-3.43433
1407.95	-31.038
1408.22	6.97214
1408.49	20.3782
1408.76	-3.12799
1409.02	20.541
1409.29	0.121765
1409.56	4.31113
1409.83	9.52563
1410.1	7.55002
1410.37	13.7586
1410.63	21.9314
1410.9	12.6353
1411.17	-13.071
1411.44	-33.6081
1411.71	-11.0796
1411.98	-20.3009
1412.25	-4.89508
1412.51	6.4863
1412.78	13.8351
1413.05	-18.6608
1413.32	-10.945
1413.59	-9.61722
1413.86	3.46994
1414.12	8.09698
1414.39	-2.01102
1414.66	1.3978
1414.93	8.83197
1415.2	17.0704
1415.47	-19.8208
1415.73	-16.6856
1416	13.154
1416.27	-19.6146
1416.54	19.4968
1416.81	26.7823
1417.07	4.28543
1417.34	-19.2375
1417.61	34.2861
1417.88	2.53625
1418.15	-3.55173
1418.42	27.3373
1418.68	-18.8335
1418.95	2.82034
1419.22	0.823975
1419.49	17.3296
1419.76	-7.32565
1420.02	-15.5673
1420.29	-13.5391
1420.56	1.84589
1420.83	-8.45383
1421.1	15.1248
1421.36	-4.40323
1421.63	-16.7023
1421.9	-2.25555
1422.17	-10.3058
1422.44	-6.00763
1422.7	12.6769
1422.97	28.3802
1423.24	-3.08084
1423.51	16.9014
1423.77	16.9657
1424.04	17.1447
1424.31	-4.22018
1424.58	-13.7812
1424.85	1.64368
1425.11	19.2389
1425.38	-16.3006
1425.65	0.21521
1425.92	10.4666
1426.19	1.43396
1426.45	25.0519
1426.72	-27.2798
1426.99	-15.0207
1427.26	4.40112
1427.52	19.7058
1427.79	3.19302
1428.06	-5.08212
1428.33	10.2654
1428.59	5.17285
1428.86	19.5675
1429.13	31.9349
1429.4	4.3772
1429.67	2.43143
1429.93	20.9881
1430.2	23.1844
1430.47	0.808899
1430.74	9.15146
1431	-19.3761
1431.27	29.0648
1431.54	50.8206
1431.81	18.1115
1432.07	10.9828
1432.34	20.1955
1432.61	3.73239
1432.87	0.646393
1433.14	6.72861
1433.41	23.0284
1433.68	8.55264
1433.95	-20.2396
1434.21	-10.0406
1434.48	0.212799
1434.75	27.0945
1435.01	25.1916
1435.28	17.0667
1435.55	17.1237
1435.82	2.82224
1436.08	20.2769
1436.35	-5.3111
1436.62	1.88705
1436.89	3.95215
1437.15	18.3073
1437.42	-19.5741
1437.69	-2.11813
1437.95	25.543
1438.22	8.16528
1438.49	37.942
1438.76	-5.98108
1439.02	13.5747
1439.29	56.6704
1439.56	-2.67297
1439.82	0.51889
1440.09	6.8165
1440.36	22.3663
1440.63	-6.23526
1440.89	11.2762
1441.16	8.26093
1441.43	31.9257
1441.69	12.463
1441.96	36.0286
1442.23	-2.9133
1442.49	31.063
1442.76	3.44205
1443.03	17.938
1443.3	27.1679
1443.56	22.0207
1443.83	23.0385
1444.1	12.7981
1444.36	43.5894
1444.63	19.0681
1444.9	4.88895
1445.16	28.6355
1445.43	10.361
1445.7	6.27643
1445.97	9.3689
1446.23	-14.206
1446.5	0.174835
1446.77	17.6339
1447.03	11.5013
1447.3	48.4403
1447.57	11.534
1447.83	-3.84442
1448.1	20.773
1448.37	9.54697
1448.63	34.2829
1448.9	-6.58746
1449.17	15.0299
1449.43	15.078
1449.7	28.4286
1449.97	26.3749
1450.23	-3.37585
1450.5	33.5161
1450.77	21.2316
1451.03	31.5016
1451.3	6.92276
1451.57	12.065
1451.83	-10.4675
1452.1	12.0891
1452.37	12.1104
1452.63	35.71
1452.9	4.00916
1453.17	-2.065
1453.43	22.6283
1453.7	18.6235
1453.97	-4.89056
1454.23	-2.81583
1454.5	41.2778
1454.77	7.51566
1455.03	10.644
1455.3	13.7592
1455.56	38.3758
1455.83	0.526093
1456.1	-18.8217
1456.36	12.0164
1456.63	30.518
1456.9	27.4598
1457.16	16.1676
1457.43	1.80951
1457.7	-9.43729
1457.96	17.2245
1458.23	3.94339
1458.49	21.4133
1458.76	15.3303
1459.03	10.2848
1459.29	2.16156
1459.56	-15.1891
1459.82	19.7083
1460.09	27.9414
1460.36	4.40274
1460.62	18.7681
1460.89	-24.2371
1461.16	-21.1531
1461.42	-0.668213
1461.69	6.49997
1461.95	-0.67395
1462.22	10.5712
1462.49	32.0411
1462.75	9.49283
1463.02	21.7324
1463.28	3.27518
1463.55	3.22964
1463.82	-19.2974
1464.08	-5.96796
1464.35	-11.9273
1464.61	16.9553
1464.88	11.0172
1465.15	1.02457
1465.41	-13.5601
1465.68	-6.04785
1465.94	-11.4248
1466.21	4.91614
1466.48	5.09439
1466.74	13.2732
1467.01	20.2833
1467.27	12.1172
1467.54	6.08786
1467.8	24.4767
1468.07	20.4174
1468.34	0.0490417
1468.6	9.2738
1468.87	24.6166
1469.13	14.4436
1469.4	-20.2225
1469.67	-6.96118
1469.93	-21.2599
1470.2	24.5712
1470.46	9.25418
1470.73	5.17276
1470.99	23.5163
1471.26	-6.00986
1471.53	-8.05075
1471.79	11.2743
1472.06	5.15829
1472.32	-0.929749
1472.59	14.3798
1472.85	-14.0913
1473.12	-18.1249
1473.39	-25.23
1473.65	6.32309
1473.92	22.5983
1474.18	42.9522
1474.45	-2.82327
1474.71	17.5792
1474.98	-1.66934
1475.24	-3.62772
1475.51	10.6777
1475.78	-7.60504
1476.04	20.9055
1476.31	6.65311
1476.57	5.64609
1476.84	-9.6001
1477.1	-5.54352
1477.37	40.2102
1477.63	-3.5072
1477.9	-10.5899
1478.16	-8.51584
1478.43	11.8254
1478.69	27.0443
1478.96	-11.5948
1479.22	5.67526
1479.49	10.7368
1479.76	21.8849
1480.02	13.7172
1480.29	11.6485
1480.55	-0.632202
1480.82	-3.74286
1481.08	-7.83035
1481.35	-41.2995
1481.61	6.36823
1481.88	3.41171
1482.14	16.7175
1482.41	-22.7378
1482.67	2.76773
1482.94	25.2167
1483.2	8.00522
1483.47	-18.2954
1483.73	-15.1742
1484	14.325
1484.26	9.28281
1484.53	19.317
1484.79	-14.3455
1485.06	10.626
1485.32	6.07153
1485.59	38.2936
1485.85	2.62628
1486.12	-30.8366
1486.38	-9.40131
1486.65	24.251
1486.91	16.7617
1487.18	1.8251
1487.44	-33.5337
1487.71	6.93066
1487.97	7.89832
1488.24	-8.31357
1488.5	-13.3914
1488.77	29.0912
1489.03	6.7695
1489.3	6.74219
1489.56	-9.44339
1489.83	9.79459
1490.09	-4.34842
1490.36	12.8955
1490.62	5.85629
1490.89	30.1319
1491.15	-13.3926
1491.42	-0.275543
1491.68	-2.28745
1491.95	-16.4111
1492.21	11.9438
1492.48	-0.122498
1492.74	13.0556
1493	-28.3678
1493.27	-2.04819
1493.53	16.1958
1493.8	22.2798
1494.06	-0.937317
1494.33	8.21329
1494.59	4.24454
1494.86	-17.9155
1495.12	20.5333
1495.39	0.297791
1495.65	10.3335
1495.92	-18.0505
1496.18	-7.00418
1496.45	32.3491
1496.71	8.1084
1496.97	30.3128
1497.24	5.06955
1497.5	-13.0537
1497.77	22.3147
1498.03	7.19971
1498.3	15.3109
1498.56	-1.79477
1498.82	9.36264
1499.09	2.3588
1499.35	12.5164
1499.62	9.56219
1499.88	-6.50626
1500.15	12.7558
1500.41	27.9616
1500.68	8.82321
1500.94	20.9709
1501.2	4.8522
1501.47	-8.26654
1501.73	2.8063
1502	-12.3094
1502.26	8.91766
1502.52	17.021
1502.79	-0.124939
1503.05	-19.3299
1503.32	-4.22928
1503.58	29.0509
1503.85	-4.25348
1504.11	-20.3414
1504.37	21.0852
1504.64	13.0831
1504.9	30.2761
1505.17	-5.99973
1505.43	23.2469
1505.7	10.1229
1505.96	9.04645
1506.22	6.93314
1506.49	22.0633
1506.75	-4.09659
1507.02	17.1234
1507.28	-4.93854
1507.54	0.161011
1507.81	23.4019
1508.07	10.3442
1508.34	-22.8896
1508.6	18.4463
1508.86	21.523
1509.13	0.423553
1509.39	3.49826
1509.66	10.5916
1509.92	14.6661
1510.18	17.7801
1510.45	1.72757
1510.71	-14.4249
1510.98	-19.4907
1511.24	2.62561
1511.5	14.6428
1511.77	8.48343
1512.03	-0.73764
1512.29	-11.9593
1512.56	-2.05362
1512.82	-1.16977
1513.08	6.80701
1513.35	-6.2934
1513.61	-11.343
1513.88	21.7965
1514.14	-11.1946
1514.4	13.1058
1514.67	-17.9502
1514.93	-9.91299
1515.2	3.09863
1515.46	-19.05
1515.72	-3.04205
1515.99	3.90732
1516.25	13.8634
1516.51	-30.3052
1516.78	16.8345
1517.04	12.8352
1517.3	-16.2241
1517.57	-30.2265
1517.83	-8.11783
1518.09	7.99811
1518.36	19.1478
1518.62	-4.85651
1518.88	-16.8203
1519.15	1.30182
1519.41	12.4157
1519.67	11.4888
1519.94	41.6523
1520.2	3.56171
1520.47	0.560059
1520.73	1.57941
1520.99	-13.4014
1521.26	-0.276825
1521.52	1.80933
1521.78	0.863892
1522.05	25.9762
1522.31	-4.11639
1522.57	-5.11917
1522.84	-0.106812
1523.1	-0.104248
1523.36	0.876953
1523.62	7.81946
1523.89	-6.32602
1524.15	17.6587
1524.41	18.617
1524.68	25.5986
1524.94	21.5705
1525.2	-15.3911
1525.47	-22.3401
1525.73	-6.25897
1525.99	25.8941
1526.26	-4.03967
1526.52	11.1391
1526.78	-0.761963
1527.05	-9.70908
1527.31	7.36548
1527.57	10.3581
1527.84	7.36862
1528.1	-15.6705
1528.36	-9.64655
1528.63	9.3866
1528.89	-13.655
1529.15	-16.6516
1529.41	5.40836
1529.68	17.4637
1529.94	1.45401
1530.2	-11.585
1530.47	-22.5742
1530.73	4.5419
1530.99	2.66245
1531.25	-4.22751
1531.52	19.9234
1531.78	24.9851
1532.04	13.9784
1532.31	-3.00266
1532.57	16.0237
1532.83	4.09021
1533.09	10.2521
1533.36	-6.60599
1533.62	15.6216
1533.88	9.70322
1534.15	34.8568
1534.41	14.8321
1534.67	21.8731
1534.94	17.8708
1535.2	6.83713
1535.46	36.9284
1535.72	1.7962
1535.99	24.691
1536.25	3.56735
1536.51	7.52658
1536.77	0.421417
1537.04	9.32526
1537.3	16.2391
1537.56	0.216583
1537.82	-15.8364
1538.09	-7.78882
1538.35	6.17459
1538.61	10.0904
1538.87	42.0795
1539.14	14.0914
1539.4	27.2415
1539.66	25.5213
1539.92	7.84772
1540.19	16.1034
1540.45	-3.7233
1540.71	1.49954
1540.97	-2.36243
1541.24	-20.329
1541.5	7.62646
1541.76	-4.38077
1542.02	9.58441
1542.29	3.51431
1542.55	3.45584
1542.81	15.4148
1543.07	37.3865
1543.34	-4.70813
1543.6	9.24701
1543.86	12.1585
1544.12	10.0625
1544.39	17.1218
1544.65	3.18494
1544.91	8.30954
1545.17	14.4751
1545.43	26.6149
1545.7	7.79803
1545.96	6.92334
1546.22	29.0508
1546.48	24.1294
1546.74	-1.89822
1547.01	13.1867
1547.27	3.25452
1547.53	4.3443
1547.79	40.5006
1548.06	21.4115
1548.32	33.2537
1548.58	20.2755
1548.84	33.3557
1549.1	9.48022
1549.37	4.14734
1549.63	-10.2166
1549.89	18.7253
1550.15	-19.0093
1550.42	35.4782
1550.68	8.08832
1550.94	0.536316
1551.2	-21.1462
1551.46	12.7809
1551.73	29.9303
1551.99	31.8932
1552.25	9.72153
1552.51	20.9844
1552.77	27.2191
1553.03	14.1483
1553.3	21.1001
1553.56	41.9097
1553.82	58.9342
1554.08	12.7945
1554.34	4.72925
1554.61	1.6481
1554.87	21.6012
1555.13	8.46988
1555.39	20.4799
1555.65	-8.55804
1555.91	-10.5248
1556.18	15.5847
1556.44	6.61185
1556.7	2.58377
1556.96	14.6475
1557.22	26.7333
1557.48	23.791
1557.75	-8.22006
1558.01	1.81491
1558.27	21.8131
1558.53	5.70212
1558.79	12.6492
1559.06	8.54898
1559.32	20.4702
1559.58	36.4012
1559.84	22.3487
1560.1	10.3181
1560.36	40.287
1560.63	-22.686
1560.89	22.2954
1561.15	17.3123
1561.41	3.35641
1561.67	15.4148
1561.93	20.525
1562.19	9.67737
1562.46	11.8346
1562.72	4.87543
1562.98	27.8967
1563.24	12.901
1563.5	16.9586
1563.76	19.9571
1564.02	2.97189
1564.29	2.14764
1564.55	17.3469
1564.81	18.4359
1565.07	16.4443
1565.33	4.25272
1565.59	10.5904
1565.85	23.6067
1566.11	24.119
1566.38	24.8565
1566.64	8.39081
1566.9	14.2225
1567.16	10.9979
1567.42	13.3605
1567.68	15.7553
1567.94	24.7023
1568.2	15.4542
1568.47	9.54187
1568.73	-12.3623
1568.99	35.6998
1569.25	9.70023
1569.51	-24.392
1569.77	33.5262
1570.03	-3.40735
1570.29	21.6451
1570.55	19.6927
1570.82	15.7381
1571.08	43.7506
1571.34	19.784
1571.6	11.79
1571.86	25.7519
1572.12	27.7133
1572.38	42.7206
1572.64	3.75113
1572.9	21.6865
1573.17	23.6603
1573.43	23.639
1573.69	32.5913
1573.95	18.5971
1574.21	31.617
1574.47	37.7185
1574.73	30.8639
1574.99	6.03403
1575.25	22.1528
1575.51	30.2814
1575.78	13.4055
1576.04	8.46426
1576.3	29.458
1576.56	31.4853
1576.82	26.4784
1577.08	-12.5709
1577.34	44.2357
1577.6	26.1503
1577.86	41.0103
1578.12	13.9792
1578.38	-26.9882
1578.64	50.7471
1578.9	1.90732
1579.17	30.8508
1579.43	-8.99323
1579.69	4.00653
1579.95	18.0229
1580.21	15.1263
1580.47	14.1945
1580.73	10.2492
1580.99	9.27179
1581.25	44.1596
1581.51	11.2296
1581.77	38.1263
1582.03	7.1828
1582.29	16.102
1582.55	0.167389
1582.81	32.0555
1583.07	27.0778
1583.33	8.164
1583.59	-1.7728
1583.85	21.1619
1584.11	20.1608
1584.38	27.1676
1584.64	-16.5858
1584.9	18.3375
1585.16	23.3702
1585.42	18.4212
1585.68	25.4067
1585.94	23.4398
1586.2	38.3751
1586.46	28.3549
1586.72	25.302
1586.98	11.3298
1587.24	26.2398
1587.5	28.2213
1587.76	18.2715
1588.02	29.231
1588.28	23.2999
1588.54	-16.4315
1588.8	29.4212
1589.06	16.5789
1589.32	29.6036
1589.58	22.7231
1589.84	27.7744
1590.1	40.7673
1590.36	9.9368
1590.62	23.9436
1590.88	10.085
1591.14	-0.798096
1591.4	21.1354
1591.66	4.23776
1591.92	27.1503
1592.18	44.0699
1592.44	31.0679
1592.7	26.9907
1592.96	16.98
1593.22	35.8543
1593.48	1.92499
1593.74	22.6813
1594	6.64948
1594.26	17.5109
1594.52	13.5184
1594.78	18.5196
1595.04	41.4495
1595.3	18.7184
1595.56	33.7126
1595.82	8.90533
1596.08	39.552
1596.34	2.82855
1596.6	8.82193
1596.86	34.684
1597.12	35.7276
1597.38	9.96503
1597.64	4.07385
1597.9	30.9665
1598.16	56.8212
1598.42	22.0451
1598.68	-5.80255
1598.94	30.8684
1599.2	10.948
1599.46	26.7891
1599.72	28.7386
1599.98	17.7893
1600.24	21.7235
1600.5	-1.12094
1600.76	26.6059
1601.02	38.4365
1601.28	-8.24207
1601.54	35.2625
1601.8	47.0468
1602.06	48.9454
1602.32	37.9996
1602.58	23.105
1602.84	52.7394
1603.1	5.17923
1603.36	11.0622
1603.62	14.9791
1603.88	13.9741
1604.14	40.6712
1604.4	19.9324
1604.66	14.0409
1604.92	14.0868
1605.17	21.0464
1605.43	20.1007
1605.69	22.1275
1605.95	19.2281
1606.21	22.2762
1606.47	2.58041
1606.73	22.4503
1606.99	13.6225
1607.25	35.3274
1607.51	42.133
1607.77	28.4571
1608.03	20.0232
1608.29	0.65686
1608.55	39.0618
1608.81	45.1938
1609.07	15.5673
1609.32	20.1344
1609.58	14.0285
1609.84	21.8273
1610.1	31.2521
1610.36	25.417
1610.62	32.018
1610.88	22.1823
1611.14	22.9482
1611.4	45.4409
1611.66	10.3047
1611.92	42.8208
1612.18	21.1266
1612.44	35.5028
1612.69	6.31696
1612.95	37.7185
1613.21	6.63583
1613.47	4.93652
1613.73	13.6305
1613.99	15.3842
1614.25	10.9412
1614.51	25.769
1614.77	21.6137
1615.03	23.983
1615.29	22.8248
1615.54	15.394
1615.8	46.1418
1616.06	10.0809
1616.32	18.9857
1616.58	32.3021
1616.84	28.2954
1617.1	22.2286
1617.36	41.0473
1617.62	34.959
1617.88	29.6485
1618.13	9.76093
1618.39	25.5236
1618.65	26.5691
1618.91	26.1385
1619.17	25.3042
1619.43	19.7068
1619.69	15.059
1619.95	26.3842
1620.2	31.2823
1620.46	30.234
1620.72	40.4828
1620.98	33.8192
1621.24	31.539
1621.5	28.6161
1621.76	41.8603
1622.02	20.3022
1622.27	28.2068
1622.53	35.2556
1622.79	34.9582
1623.05	23.4516
1623.31	33.253
1623.57	33.0995
1623.83	46.7448
1624.09	36.7762
1624.34	36.1095
1624.6	24.3464
1624.86	27.4598
1625.12	26.5749
1625.38	25.4028
1625.64	21.8808
1625.9	11.9395
1626.15	7.72977
1626.41	21.5718
1626.67	20.2325
1626.93	26.6477
1627.19	21.984
1627.45	29.8557
1627.7	41.8427
1627.96	36.898
1628.22	45.3926
1628.48	41.3803
1628.74	25.2881
1629	11.025
1629.26	27.0441
1629.51	28.8114
1629.77	40.3931
1630.03	21.8535
1630.29	32.6607
1630.55	24.8936
1630.81	31.9175
1631.06	6.93378
1631.32	14.5693
1631.53	6.07974
1631.79	32.7709
1632.05	10.2181
1632.31	52.6964
1632.57	67.488
1632.84	10.4727
1633.1	37.3354
1633.36	27.3554
1633.62	45.8964
1633.88	25.1882
1634.14	42.0308
1634.4	42.1311
1634.66	33.3147
1634.93	20.5436
1635.19	39.2977
1635.45	34.3846
1635.71	31.4341
1635.97	20.591
1636.23	-0.112793
1636.49	3.81268
1636.75	60.936
1637.02	38.2509
1637.28	55.9424
1637.54	34.2298
1637.8	65.7306
1638.06	37.1936
1638.32	17.4967
1638.58	-11.061
1638.84	20.4407
1639.1	40.1639
1639.37	23.4633
1639.63	25.4594
1639.89	26.473
1640.15	57.9966
1640.41	36.3576
1640.67	21.6375
1640.93	29.6229
1641.19	40.5425
1641.46	33.6983
1641.72	16.9618
1641.98	27.7798
1642.24	14.9839
1642.5	36.6517
1642.76	53.3999
1643.02	32.7409
1643.28	27.8365
1643.54	43.6074
1643.8	34.7694
1644.06	15.0826
1644.33	46.5611
1644.59	34.7177
1644.85	38.6289
1645.11	42.5821
1645.37	39.6954
1645.63	61.4319
1645.89	28.0394
1646.15	24.1404
1646.41	47.7471
1646.67	41.8237
1646.93	9.34537
1647.19	11.3185
1647.46	20.162
1647.72	27.0336
1647.98	22.1106
1648.24	29.0175
1648.5	30.0486
1648.76	32.1203
1649.02	7.63757
1649.28	27.553
1649.54	27.6663
1649.8	45.3726
1650.06	11.8892
1650.32	76.8832
1650.58	55.3908
1650.85	27.9533
1651.11	59.5835
1651.37	30.1436
1651.63	15.4485
1651.89	39.1535
1652.15	43.1292
1652.41	48.0894
1652.67	44.1971
1652.93	26.4486
1653.19	44.1656
1653.45	35.3069
1653.71	37.3108
1653.97	12.7298
1654.23	24.6263
1654.49	11.8736
1654.75	56.2699
1655.01	48.4475
1655.27	57.4062
1655.53	7.2449
1655.8	40.9223
1656.06	30.2546
1656.32	6.70245
1656.57	49.2361
1656.84	41.4104
1657.1	25.668
1657.36	4.95917
1657.62	30.6196
1657.88	34.5537
1658.14	48.374
1658.4	53.3074
1658.66	25.6649
1658.92	37.4774
1659.18	-7.92676
1659.44	20.6502
1659.7	15.6919
1659.96	12.7062
1660.22	2.79446
1660.48	36.3766
1660.74	23.6448
1661	43.4626
1661.26	35.6805
1661.52	31.8454
1661.78	34.9233
1662.04	40.9116
1662.3	-8.36795
1662.56	31.7472
1662.82	25.6496
1663.08	-3.55975
1663.34	42.7164
1663.6	39.735
1663.86	26.8152
1664.12	37.8342
1664.38	29.4284
1664.64	20.6765
1664.9	24.6936
1665.16	5.17227
1665.42	1.33029
1665.68	34.5051
1665.94	43.0219
1666.2	47.1171
1666.46	48.2308
1666.72	19.5437
1666.98	9.13965
1667.24	16.8135
1667.5	23.947
1667.76	46.591
1668.02	39.644
1668.28	34.6987
1668.54	35.6474
1668.8	7.07846
1669.06	16.1696
1669.32	41.1179
1669.58	-5.22665
1669.84	8.64209
1670.1	19.5542
1670.36	51.1506
1670.62	4.76123
1670.88	26.7346
1671.14	16.0292
1671.4	24.9168
1671.66	12.0679
1671.92	7.1409
1672.18	18.0621
1672.44	23.0714
1672.69	54.7495
1672.95	23.1471
1673.21	29.1082
1673.47	10.3696
1673.73	32.1675
1673.99	33.2166
1674.25	31.3148
1674.51	27.4476
1674.77	33.4646
1675.03	42.4531
1675.29	9.91672
1675.55	26.8309
1675.81	20.9614
1676.07	1.20636
1676.33	14.0974
1676.59	4.24664
1676.85	18.1548
1677.11	8.3006
1677.37	8.32669
1677.63	21.2026
1677.89	40.0004
1678.14	28.0992
1678.4	28.0519
1678.66	15.1374
1678.92	10.1532
1679.18	21.007
1679.44	17.0355
1679.7	30.8734
1679.96	25.9211
1680.22	20.9697
1680.48	10.1004
1680.74	22.9382
1681	29.8456
1681.26	-11.6539
1681.52	12.0704
1681.78	3.20395
1682.03	32.8697
1682.29	45.744
1682.55	32.9368
1682.81	27.05
1683.07	44.8473
1683.33	21.158
1683.59	7.35464
1683.85	30.1071
1684.11	13.3342
1684.37	17.2922
1684.63	19.2385
1684.89	14.299
1685.14	34.0605
1685.4	37.0411
1685.66	28.1779
1685.92	3.52155
1686.18	28.2429
1686.44	-8.25287
1686.7	22.4243
1686.96	14.6361
1687.22	35.4543
1687.48	15.7373
1687.73	7.83652
1687.99	2.88474
1688.25	25.5879
1688.51	-16.8816
1688.77	32.4814
1689.03	31.4657
1689.29	9.69498
1689.55	7.68732
1689.81	26.3987
1690.06	34.2434
1690.32	42.073
1690.58	47.0093
1690.84	18.5322
1691.1	21.5756
1691.36	14.7366
1691.62	5.90836
1691.88	32.6265
1692.13	12.9562
1692.39	24.8324
1692.65	17.9337
1692.91	20.8678
1693.17	22.7965
1693.43	12.8741
1693.69	7.87006
1693.95	26.5162
1694.2	-0.144104
1694.46	55.9808
1694.72	20.4555
1694.98	35.2047
1695.24	16.5152
1695.5	22.481
1695.76	29.4313
1696.01	36.3836
1696.27	17.7242
1696.53	14.8547
1696.79	6.05408
1697.05	20.8656
1697.31	21.8456
1697.57	5.05438
1697.82	23.7029
1698.08	32.4913
1698.34	12.7465
1698.6	17.6325
1698.86	50.0772
1699.12	34.3063
1699.38	21.5169
1699.63	16.619
1699.89	24.545
1700.15	2.93222
1700.41	48.236
1700.67	0.964966
1700.92	13.7699
1701.18	6.89804
1701.44	18.7127
1701.7	-2.93015
1701.96	15.7268
1702.22	23.5468
1702.47	17.6086
1702.73	24.4426
1702.99	1.79861
1703.25	23.4271
1703.51	27.3787
1703.77	43.1055
1704.02	33.2725
1704.28	-5.03424
1704.54	9.76929
1704.8	29.5059
1705.06	34.4642
1705.32	18.7545
1705.57	21.7093
1705.83	11.9156
1706.09	12.9304
1706.35	27.6379
1706.61	-14.6511
1706.86	38.3226
1707.12	-0.0366516
1707.38	6.77271
1707.64	0.834564
1707.9	27.2528
1708.16	0.678345
1708.41	22.1595
1708.67	3.44394
1708.93	17.0536
1709.19	23.8139
1709.44	35.5047
1709.7	14.9161
1709.96	19.8154
1710.22	23.7568
1710.48	20.8598
1710.73	-22.1712
1710.99	20.9694
1711.25	14.2061
1711.51	5.46136
1711.77	49.6006
1712.02	-2.24777
1712.28	19.339
1712.54	27.1627
1712.8	16.3118
1713.06	17.1617
1713.31	8.2204
1713.57	-3.63516
1713.83	37.3192
1714.09	22.5383
1714.34	48.8758
1714.6	9.77985
1714.86	16.6135
1715.12	11.7395
1715.38	15.6716
1715.63	15.7708
1715.89	11.9806
1716.15	-3.62329
1716.41	21.7801
1716.66	36.408
1716.92	32.4459
1717.18	22.5992
1717.44	16.6355
1717.69	22.3562
1717.95	24.1415
1718.21	4.50549
1718.47	6.34125
1718.72	1.37775
1718.98	1.32675
1719.24	27.6009
1719.5	10.0994
1719.75	21.811
1720.01	4.29611
1720.27	17.9868
1720.53	19.0092
1720.78	8.29318
1721.04	15.07
1721.3	-4.46658
1721.56	7.16257
1721.81	7.11813
1722.07	2.20093
1722.33	3.11194
1722.59	-2.78537
1722.84	15.6166
1723.1	26.2433
1723.36	17.4478
1723.62	2.84506
1723.87	39.7339
1724.13	-9.76205
1724.39	8.68774
1724.64	4.8165
1724.9	0.904358
1725.16	28.9826
1725.42	4.6037
1725.67	18.0782
1725.93	11.1764
1726.19	0.4534
1726.45	1.40964
1726.7	12.1299
1726.96	26.6687
1727.22	15.9835
1727.47	3.28607
1727.73	17.8368
1727.99	0.524994
1728.24	31.5322
1728.5	3.4086
1728.76	13.9485
1729.02	-16.5258
1729.27	26.3973
1729.53	-4.66919
1729.79	9.08878
1730.05	-1.30386
1730.3	-11.7548
1730.56	27.6482
1730.82	-17.8012
1731.07	-18.7683
1731.33	7.7561
1731.59	-10.5481
1731.84	10.7534
1732.1	4.0119
1732.36	6.92126
1732.61	11.7481
1732.87	0.144409
1733.13	1.08633
1733.39	20.356
1733.64	6.75122
1733.9	1.80743
1734.16	10.3661
1734.41	4.49524
1734.67	-0.41098
1734.93	-8.20938
1735.18	3.26685
1735.44	2.21649
1735.7	10.8098
1735.95	4.98581
1736.21	10.7358
1736.47	11.6953
1736.72	7.83859
1736.98	-12.3875
1737.24	23.1958
1737.49	0.0821838
1737.75	23.1496
1738.01	7.74365
1738.26	3.86319
1738.52	5.73883
1738.78	3.7692
1739.03	11.4106
1739.29	14.2336
1739.55	-2.17377
1739.8	14.0417
1740.06	3.34399
1740.32	4.17584
1740.57	28.0384
1740.83	-4.64703
1741.09	23.0878
1741.34	-3.79636
1741.6	3.8179
1741.86	-8.67685
1742.11	14.2774
1742.37	8.52435
1742.63	-4.86935
1742.88	8.53653
1743.14	3.74313
1743.4	-10.6058
1743.65	18.1317
1743.91	12.383
1744.16	-7.75751
1744.42	9.43265
1744.68	-14.5058
1744.93	-3.97739
1745.19	13.2711
1745.45	10.4406
1745.7	20.0382
1745.96	19.0938
1746.22	-2.91882
1746.47	32.4175
1746.73	3.66803
1746.98	-2.14572
1747.24	4.4888
1747.5	-4.1821
1747.75	-3.27902
1748.01	37.7186
1748.27	-7.16074
1748.52	-4.27319
1748.78	-1.37222
1749.03	3.44818
1749.29	33.1011
1749.55	-20.2879
1749.8	22.7743
1750.06	-7.68015
1750.32	-6.60956
1750.57	-0.758392
1750.83	-13.0723
1751.08	-3.45184
1751.34	-6.24509
1751.6	-8.11423
1751.85	14.8133
1752.11	6.13495
1752.36	-0.634705
1752.62	8.86374
1752.88	-9.32819
1753.13	28.8102
1753.39	11.5728
1753.64	5.80695
1753.9	21.9955
1754.15	12.4248
1754.41	15.2338
1754.67	-11.5189
1754.92	15.1538
1755.18	8.4592
1755.43	1.77588
1755.69	11.2917
1755.95	-22.0913
1756.2	-5.93738
1756.46	-3.13702
1756.71	-4.15524
1756.97	30.9788
1757.23	2.33517
1757.48	-4.39966
1757.74	0.344177
1757.99	16.4993
1758.25	8.94693
1758.5	-0.422516
1758.76	1.54749
1759.02	13.0074
1759.27	-5.03525
1759.53	-3.0946
1759.78	8.37631
1760.04	16.9671
1760.3	13.1643
1760.55	7.45505
1760.81	-20.1385
1761.06	20.7579
1761.32	-7.80609
1761.57	-23.0612
1761.83	-9.78
1762.08	0.665009
1762.34	-14.5401
1762.6	-5.01657
1762.85	-5.87292
1763.11	2.75732
1763.36	-5.7598
1763.62	7.56793
1763.87	15.2192
1764.13	-0.885895
1764.38	2.98923
1764.64	11.6596
1764.89	0.415558
1765.15	17.6374
1765.4	19.6249
1765.66	-2.20078
1765.92	11.1849
1766.17	0.758362
1766.43	-4.92056
1766.68	17.9487
1766.94	-5.84885
1767.19	35.0899
1767.45	-8.67099
1767.7	-15.3312
1767.96	17.9612
1768.21	-9.65991
1768.47	-6.81512
1768.73	-11.5709
1768.98	-3.00327
1769.24	-11.6797
1769.49	26.1694
1769.75	-17.6963
1770	15.4492
1770.26	2.19839
1770.51	-4.33041
1770.77	-14.6576
1771.02	-7.0184
1771.28	-13.6111
1771.53	-2.07874
1771.79	-0.01297
1772.04	-0.88446
1772.3	7.72635
1772.55	2.11444
1772.81	-7.29077
1773.06	-0.542633
1773.32	-2.36862
1773.57	8.17505
1773.83	17.7646
1774.08	17.8335
1774.34	-20.1825
1774.59	46.5121
1774.85	26.5704
1775.1	-6.66962
1775.36	0.057251
1775.61	-9.36969
1775.87	-4.40991
1776.12	20.4992
1776.38	-13.7373
1776.63	13.0017
1776.89	-5.09683
1777.14	-9.87671
1777.4	-0.376526
1777.65	21.5328
1777.91	-12.804
1778.16	18.5995
1778.42	21.4171
1778.67	10.9043
1778.93	17.5197
1779.18	4.12473
1779.44	5.95572
1779.69	13.537
1779.95	3.09763
1780.2	4.18768
1780.46	-3.36755
1780.71	8.11209
1780.97	-6.10107
1781.22	32.0459
1781.47	-3.13757
1781.73	14.0467
1781.98	-2.07346
1782.24	-0.0866699
1782.49	1.90912
1782.75	-3.68802
1783	29.7478
1783.26	-5.43185
1783.51	-6.31335
1783.77	17.5945
1784.02	1.47046
1784.28	8.22992
1784.53	3.56152
1784.79	0.826294
1785.04	3.77737
1785.29	11.4729
1785.55	-7.57819
1785.8	8.65359
1786.06	2.92209
1786.31	-28.5638
1786.57	-3.72568
1786.82	-1.75522
1787.08	7.87671
1787.33	30.8929
1787.58	-28.1526
1787.84	10.2064
1788.09	17.1539
1788.35	-29.4219
1788.6	15.7949
1788.86	22.6897
1789.11	0.767731
1789.37	1.84329
1789.62	13.5096
1789.87	15.5539
1790.13	6.05075
1790.38	7.08905
1790.64	1.41772
1790.89	-10.0516
1791.15	8.17709
1791.4	12.9158
1791.65	-14.1047
1791.91	13.6707
1792.16	-17.9386
1792.42	-12.1573
1792.67	-5.40744
1792.93	-2.48343
1793.18	-12.9426
1793.43	9.15228
1793.69	-1.3454
1793.94	6.35358
1794.2	2.60104
1794.45	13.1869
1794.7	-2.12061
1794.96	-11.7262
1795.21	35.3637
1795.47	-1.698
1795.72	-7.23679
1795.97	-4.23254
1796.23	-10.8642
1796.48	5.55487
1796.74	-12.5911
1796.99	14.4062
1797.25	3.94534
1797.5	-17.0962
1797.75	6.05823
1798.01	1.33179
1798.26	-2.44196
1798.51	23.5828
1798.77	11.1366
1799.02	40.0172
1799.28	-6.12793
1799.53	1.55457
1799.78	10.1788
1800.04	8.21301
1800.29	9.1362
1800.55	4.30856
1800.8	12.9408
1801.05	12.937
1801.31	11.0231
1801.56	12.9619
1801.81	7.22882
1802.07	34.1673
1802.32	-10.9243
1802.58	11.2363
1802.83	-5.97937
1803.08	-11.6553
1803.34	-7.71045
1803.59	3.93353
1803.84	5.95142
1804.1	-8.41003
1804.35	-11.2462
1804.61	-6.36163
1804.86	-12.999
1805.11	-8.09283
1805.37	12.2284
1805.62	10.427
1805.87	10.5486
1806.13	-3.7886
1806.38	26.1694
1806.64	1.20956
1806.89	-0.638458
1807.14	23.5166
1807.4	-4.39029
1807.65	2.38922
1807.9	10.1302
1808.16	5.34494
1808.41	6.34442
1808.66	15.0576
1808.92	-7.07126
1809.17	6.46628
1809.42	13.2579
1809.68	-13.6926
1809.93	-4.97183
1810.18	-10.7125
1810.44	10.5399
1810.69	-0.0330811
1810.94	1.90613
1811.2	15.4138
1811.45	13.5089
1811.7	14.4934
1811.96	14.5171
1812.21	8.76553
1812.46	12.6688
1812.72	1.16782
1812.97	18.6065
1813.22	-11.1975
1813.48	6.24646
1813.73	16.9095
1813.98	-10.9897
1814.24	-5.09207
1814.49	7.58237
1814.74	-18.358
1815	25.2534
1815.25	31.1544
1815.5	19.6489
1815.76	7.14621
1816.01	-4.40372
1816.26	19.8045
1816.52	25.6524
1816.77	13.1406
1817.02	12.2289
1817.27	-5.16513
1817.53	-9.05505
1817.78	6.26508
1818.03	-6.38599
1818.29	-15.999
1818.54	4.37677
1818.79	-8.05737
1819.05	19.0862
1819.3	13.2961
1819.55	-2.11179
1819.8	29.8558
1820.06	11.5632
1820.31	13.5586
1820.56	18.4647
1820.82	12.7419
1821.07	-0.729431
1821.32	-3.56961
1821.58	15.8545
1821.83	14.9749
1822.08	16.992
1822.33	20.935
1822.59	12.2867
1822.84	-0.24408
1823.09	7.54773
1823.34	12.4335
1823.6	25.0383
1823.85	-5.9433
1824.1	-9.82391
1824.36	11.4868
1824.61	5.7359
1824.86	2.89142
1825.11	8.75873
1825.37	8.82245
1825.62	18.5728
1825.87	8.9433
1826.12	11.8826
1826.38	10.939
1826.63	19.689
1826.88	9.07281
1827.14	6.20261
1827.39	32.4043
1827.64	-9.18497
1827.89	14.1317
1828.15	15.1644
1828.4	6.47278
1828.65	5.51523
1828.9	24.8811
1829.16	24.8524
1829.41	17.0937
1829.66	1.60901
1829.91	4.52631
1830.17	13.247
1830.42	11.2923
1830.67	97.4473
1830.92	12.2306
1831.18	5.4808
1831.43	1.67444
1831.68	10.4646
1831.93	35.7231
1832.19	-14.5701
1832.44	14.5626
1832.69	-11.5193
1832.94	23.4646
1833.2	24.5145
1833.45	19.7012
1833.7	9.07309
1833.95	12.041
1834.2	34.3812
1834.46	29.5858
1834.71	16.9101
1834.96	6.08035
1835.21	41.7507
1835.47	35.7834
1835.72	19.2429
1835.97	15.295
1836.22	-0.161499
1836.48	2.68143
1836.73	23.5966
1836.98	2.21353
1837.23	30.8386
1837.48	20.9865
1837.74	5.24597
1837.99	28.2708
1838.24	43.3707
1838.49	-6.12985
1838.74	4.47751
1839	9.9516
1839.25	18.9607
1839.5	27.8455
1839.75	13.3906
1840	7.65094
1840.26	28.1232
1840.51	20.0436
1840.76	19.8028
1841.01	34.1096
1841.27	23.3008
1841.52	41.5031
1841.77	14.3049
1842.02	8.38531
1842.27	14.0653
1842.53	40.9756
1842.78	27.3646
1843.03	32.2791
1843.28	20.6895
1843.53	29.438
1843.78	13.0569
1844.04	22.727
1844.29	-12.9778
1844.54	4.40479
1844.79	27.6249
1845.04	-5.14273
1845.3	18.9347
1845.55	-4.17661
1845.8	10.3179
1846.05	-15.5604
1846.3	3.92099
1846.55	-5.57092
1846.81	-0.466705
1847.06	9.01602
1847.31	12.3696
1847.56	-10.3798
1847.81	9.74234
1848.07	11.6978
1848.32	-6.39154
1848.57	13.0662
1848.82	32.1594
1849.07	19.561
1849.32	21.521
1849.57	18.5808
1849.83	-0.752594
1850.08	34.7544
1850.33	0.997925
1850.58	14.3453
1850.83	28.6749
1851.09	20.9088
1851.34	-14.6967
1851.59	-6.09506
1851.84	-0.362549
1852.09	-15.7417
1852.34	-0.372406
1852.59	-18.5983
1852.84	-0.331482
1853.1	-5.11197
1853.35	-3.18011
1853.6	-0.300751
1853.85	8.32181
1854.1	8.27161
1854.35	-9.08157
1854.6	-21.6443
1854.86	16.6416
1855.11	-1.61398
1855.36	24.2384
1855.61	-6.5217
1855.86	17.3372
1856.11	-7.61856
1856.36	-4.75543
1856.61	-1.87961
1856.87	15.3821
1857.12	-6.62903
1857.37	10.6162
1857.62	15.3928
1857.87	5.79376
1858.12	-11.4644
1858.37	7.64835
1858.63	21.9521
1858.88	15.1879
1859.13	14.1651
1859.38	-1.20828
1859.63	0.63324
1859.88	1.54666
1860.13	6.33835
1860.38	-4.15582
1860.63	-2.20154
1860.89	-5.9393
1861.14	30.487
1861.39	-5.78571
1861.64	-0.91571
1861.89	15.4291
1862.14	-10.3694
1862.39	11.6422
1862.64	23.0881
1862.9	18.2434
1863.15	3.82864
1863.4	-7.71115
1863.65	-1.08054
1863.9	-16.4291
1864.15	21.7452
1864.4	-6.01004
1864.65	15.917
1864.9	9.18457
1865.15	1.48932
1865.4	36.7364
1865.66	28.0491
1865.91	2.1824
1866.16	20.1828
1866.41	2.88632
1866.66	-4.87137
1866.91	-1.19016
1867.16	24.384
1867.41	-3.35013
1867.66	14.6089
1867.91	30.6847
1868.16	5.91501
1868.41	12.5476
1868.67	9.68887
1868.92	17.3188
1869.17	4.99792
1869.42	11.6683
1869.67	4.06213
1869.92	6.90967
1870.17	-4.4996
1870.42	-8.30145
1870.67	2.15433
1870.92	18.3151
1871.17	-8.28702
1871.42	8.83258
1871.67	-5.4306
1871.92	1.1991
1872.17	16.3565
1872.42	5.8801
1872.68	5.86185
1872.93	21.9573
1873.18	11.4536
1873.43	16.1677
1873.68	-18.0067
1873.93	-8.52383
1874.18	-4.75891
1874.43	8.47702
1874.68	24.5414
1874.93	-7.78442
1875.18	-5.96008
1875.43	25.2444
1875.68	11.8865
1875.93	12.7194
1876.18	0.223297
1876.43	-18.8211
1876.68	-10.3913
1876.93	-11.404
1877.18	-5.76129
1877.43	0.698059
1877.68	1.44376
1877.93	10.4898
1878.18	2.30444
1878.44	5.51929
1878.69	1.24539
1878.93	-13.0913
1879.19	2.01865
1879.44	10.8976
1879.69	13.9256
1879.94	12.8825
1880.19	-3.31021
1880.44	-3.31155
1880.69	-8.99948
1880.94	11.9279
1881.19	-7.07358
1881.44	27.0063
1881.69	4.15198
1881.94	-8.30637
1882.19	6.66113
1882.44	21.6006
1882.69	3.45605
1882.94	2.27759
1883.19	12.5686
1883.44	7.60239
1883.69	-8.95343
1883.94	6.56989
1884.19	-4.72592
1884.44	-1.85574
1884.69	21.0023
1884.94	15.1618
1885.19	14.3737
1885.44	-22.2112
1885.69	-0.447815
1885.94	30.7528
1886.19	3.57898
1886.44	-16.1523
1886.69	11.3056
1886.94	-8.54846
1887.19	3.59271
1887.44	5.41464
1887.69	1.57104
1887.94	7.15808
1888.19	-9.89584
1888.44	-14.6933
1888.69	12.5186
1888.94	12.4047
1889.19	-9.35974
1889.44	24.4427
1889.69	14.9793
1889.94	3.68436
1890.19	-10.4381
1890.44	9.37762
1890.69	2.88391
1890.94	-23.3903
1891.19	4.90384
1891.43	-0.746796
1891.68	-17.7174
1891.94	-0.757843
1892.18	-8.30106
1892.43	-9.24741
1892.68	2.99484
1892.93	-4.57504
1893.18	-5.57523
1893.43	8.42764
1893.68	8.23859
1893.93	4.31464
1894.18	-9.81381
1894.43	4.35608
1894.68	25.8513
1894.93	-3.32861
1895.18	-6.16089
1895.43	4.19656
1895.68	-30.5266
1895.93	0.52829
1896.18	12.8007
1896.43	9.10217
1896.68	2.59442
1896.93	-9.54593
1897.18	-1.95044
1897.42	10.3355
1897.68	-11.2511
1897.92	1.94699
1898.17	9.48349
1898.42	3.83026
1898.67	18.8489
1898.92	-4.71207
1899.17	-15.1207
1899.42	12.0616
1899.67	9.18497
1899.92	-7.75418
1900.17	-19.9999
1900.42	4.39355
1900.67	-6.87872
1900.92	1.59909
1901.16	1.64755
1901.41	17.693
1901.66	2.74551
1901.91	13.168
1902.16	-7.42999
1902.41	-1.69308
1902.66	7.80157
1902.91	-10.9955
1903.16	5.91769
1903.41	-14.799
1903.66	2.099
1903.91	-11.0851
1904.16	5.82852
1904.41	-3.57892
1904.65	18.0461
1904.9	-3.57916
1905.15	4.87411
1905.4	-11.1102
1905.65	-3.5835
1905.9	-2.65219
1906.15	1.95868
1906.4	1.84729
1906.65	-12.2802
1906.9	3.65637
1907.14	4.57004
1907.39	1.73801
1907.64	0.81369
1907.89	-1.97186
1908.14	9.35583
1908.39	9.4353
1908.64	-8.37372
1908.89	-6.46411
1909.14	-11.1152
1909.39	3.98679
1909.63	13.47
1909.88	-15.5739
1910.13	10.8729
1910.38	25.1168
1910.63	6.4364
1910.88	5.61688
1911.13	3.82532
1911.38	0.124573
1911.62	28.4284
1911.87	-4.51535
1912.12	13.3898
1912.37	-16.7668
1912.62	13.3594
1912.87	-22.4287
1913.12	30.3237
1913.37	-22.4087
1913.61	4.92764
1913.86	-8.19632
1914.11	-9.97174
1914.36	21.2531
1914.61	9.09332
1914.86	11.0645
1915.11	-4.88162
1915.36	-4.80331
1915.6	6.57919
1915.85	-23.5863
1916.1	-10.3742
1916.35	16.9695
1916.6	7.52393
1916.85	20.6888
1917.1	-11.4492
1917.34	29.9918
1917.59	1.65884
1917.84	4.45923
1918.09	20.4725
1918.34	9.17841
1918.59	14.8955
1918.83	16.8724
1919.08	10.3774
1919.33	13.3266
1919.58	-12.9773
1919.83	-2.4389
1920.08	-1.36102
1920.33	29.8958
1920.57	7.2438
1920.82	-0.348083
1921.07	9.13309
1921.32	15.8505
1921.57	14.0656
1921.81	23.5858
1922.06	4.73328
1922.31	8.55673
1922.56	-8.4584
1922.81	6.65369
1923.06	13.2255
1923.31	14.1262
1923.55	4.64536
1923.8	-10.4998
1924.05	-2.96277
1924.3	2.66586
1924.55	13.9483
1924.79	-22.9349
1925.04	-6.87985
1925.29	6.36856
1925.54	8.31293
1925.79	-1.9993
1926.04	-9.44748
1926.28	-15.0186
1926.53	3.04846
1926.78	-2.52304
1927.03	-4.29816
1927.28	-9.89841
1927.52	2.47006
1927.77	-5.04861
1928.02	-13.5213
1928.27	3.57501
1928.52	-5.85254
1928.76	38.7066
1929.01	9.39194
1929.26	0.917175
1929.51	-15.1318
1929.76	10.5462
1930	14.4595
1930.25	16.4575
1930.5	19.4235
1930.75	8.13159
1931	-0.308929
1931.24	9.21884
1931.49	8.28598
1931.74	8.26486
1931.99	6.32584
1932.24	9.13138
1932.48	19.5261
1932.73	-0.445801
1932.98	22.2755
1933.23	-12.8373
1933.47	8.94061
1933.72	26.9937
1933.97	-7.05191
1934.22	-7.82697
1934.46	0.954498
1934.71	-14.8907
1934.96	-4.12769
1935.21	3.75647
1935.46	17.3227
1935.7	7.97586
1935.95	10.9642
1936.2	4.0571
1936.45	13.5576
1936.69	10.6807
1936.94	4.92285
1937.19	5.80734
1937.44	7.6301
1937.68	20.8927
1937.93	-17.2635
1938.18	-18.2714
1938.43	8.31339
1938.68	7.36383
1938.92	-2.97858
1939.17	23.729
1939.42	1.88876
1939.67	16.2404
1939.91	17.246
1940.16	15.4066
1940.41	22.0966
1940.66	12.6623
1940.9	-0.589478
1941.15	13.0028
1941.4	-3.07477
1941.64	11.2442
1941.89	29.3313
1942.14	7.26175
1942.39	7.05057
1942.63	3.37155
1942.88	5.64981
1943.13	8.60336
1943.38	13.397
1943.62	11.3444
1943.87	23.588
1944.12	20.6014
1944.37	4.61847
1944.61	5.6546
1944.86	21.0101
1945.11	11.5504
1945.35	16.4209
1945.6	-1.63773
1945.85	25.2126
1946.1	19.5645
1946.34	18.6826
1946.59	11.0929
1946.84	14.9629
1947.09	-7.00888
1947.33	2.55197
1947.58	1.56876
1947.83	17.7922
1948.07	7.26865
1948.32	3.44427
1948.57	12.0509
1948.82	1.50763
1949.06	15.8714
1949.31	8.29047
1949.56	6.45392
1949.8	-11.6452
1950.05	-7.72745
1950.3	0.0249634
1950.54	-13.231
1950.79	18.5465
1951.04	-8.15573
1951.29	6.36456
1951.53	26.6602
1951.78	13.3735
1952.03	2.92865
1952.27	19.3245
1952.52	26.1058
1952.77	20.4077
1953.01	13.6736
1953.26	4.13754
1953.51	0.387817
1953.76	7.97736
1954	-2.71857
1954.25	2.81699
1954.49	-11.7648
1954.74	21.6072
1954.99	25.2715
1955.24	12.7664
1955.48	13.7141
1955.73	4.17975
1955.98	-8.17941
1956.22	2.51825
1956.47	17.1629
1956.72	-28.7962
1956.96	25.0727
1957.21	0.175751
1957.46	33.8764
1957.7	7.06235
1957.95	-0.553528
1958.2	7.1871
1958.44	28.3701
1958.69	19.7494
1958.94	22.6548
1959.18	19.7431
1959.43	26.3998
1959.68	11.9514
1959.92	7.13553
1960.17	17.6497
1960.42	16.6325
1960.66	10.8163
1960.91	2.11465
1961.16	21.2505
1961.4	3.90833
1961.65	3.85535
1961.9	0.941986
1962.14	9.59247
1962.39	-11.4992
1962.63	9.63071
1962.88	5.80905
1963.13	14.4648
1963.37	-5.67706
1963.62	35.6147
1963.87	-4.68915
1964.11	8.77014
1964.36	5.93585
1964.61	-0.745422
1964.85	-0.750061
1965.1	15.5469
1965.35	12.6751
1965.59	2.10077
1965.84	28.9953
1966.08	19.4318
1966.33	3.17654
1966.58	2.29678
1966.82	25.4397
1967.07	19.7334
1967.32	15.9374
1967.56	9.19882
1967.81	-11.9435
1968.05	2.50693
1968.3	-9.97552
1968.55	33.303
1968.79	9.26215
1969.04	15.9586
1969.29	6.28351
1969.53	7.15665
1969.78	-14.0892
1970.02	21.3342
1970.27	10.678
1970.52	-3.79431
1970.76	21.1091
1971.01	20.0851
1971.25	0.8414
1971.5	25.743
1971.75	-15.539
1971.99	14.1682
1972.24	2.68491
1972.48	15.1906
1972.73	17.1291
1972.98	16.166
1973.22	13.2566
1973.47	-17.4956
1973.71	-1.26822
1973.96	-14.7549
1974.21	8.20688
1974.45	-8.11877
1974.7	10.0793
1974.94	15.8322
1975.19	-22.4958
1975.44	9.16611
1975.68	-17.6321
1975.93	5.43286
1976.17	-3.15057
1976.42	7.43604
1976.66	11.2965
1976.91	-2.11957
1977.16	32.4153
1977.4	17.0561
1977.65	0.725464
1977.89	-9.8642
1978.14	-8.95877
1978.39	12.0776
1978.63	0.524139
1978.88	7.19522
1979.12	5.25531
1979.37	-10.0814
1979.61	-15.8221
1979.86	8.14255
1980.1	-2.38745
1980.35	1.45227
1980.6	19.6291
1980.84	4.22919
1981.09	25.2483
1981.33	18.5086
1981.58	6.00204
1981.82	12.6671
1982.07	-8.42981
1982.31	28.9098
1982.56	26.9789
1982.81	4.89426
1983.05	36.4284
1983.3	5.70645
1983.54	0.815979
1983.79	11.2618
1984.03	-4.08035
1984.28	29.373
1984.52	24.5527
1984.77	0.603699
1985.02	3.44144
1985.26	-12.8734
1985.51	15.7139
1985.75	-13.9619
1986	9.93301
1986.24	7.08707
1986.49	13.8275
1986.73	4.32648
1986.98	-3.29422
1987.22	13.903
1987.47	-6.1525
1987.71	4.30441
1987.96	-10.1382
1988.21	20.3231
1988.45	15.4061
1988.7	-6.71576
1988.94	-2.16473
1989.19	12.71
1989.43	0.319977
1989.68	21.2742
1989.92	-0.49881
1990.17	3.17206
1990.41	-11.5775
1990.66	6.09909
1990.9	4.53882
1991.15	13.3042
1991.39	-0.791595
1991.64	-2.16177
1991.88	8.80771
1992.13	13.6565
1992.37	7.02124
1992.62	7.97363
1992.86	7.92249
1993.11	8.13907
1993.35	3.85254
1993.6	10.8566
1993.84	13.3991
1994.09	19.2299
1994.33	2.39313
1994.58	13.8559
1994.82	3.31784
1995.07	-1.56204
1995.31	-3.30099
1995.56	-8.87909
1995.8	2.77234
1996.05	0.950378
1996.29	-0.529083
1996.54	-4.44714
1996.78	-4.55508
1997.03	6.54739
1997.27	7.04575
1997.52	0.89151
1997.76	8.4931
1998.01	10.2272
1998.25	13.8076
1998.5	-1.47961
1998.74	2.30383
1998.99	7.17596
1999.23	-0.920166
1999.48	18.8807
1999.72	10.7851
1999.97	-3.81796
2000.21	7.15338
2000.46	1.19623
2000.7	3.27084
2000.95	13.7119
2001.19	10.067
2001.43	3.70258
2001.68	4.21469
2001.92	14.7202
2002.17	8.01926
2002.41	-0.875336
2002.66	-0.546906
2002.9	7.8446
2003.15	10.1967
2003.39	6.27832
2003.64	4.32803
2003.88	4.24652
2004.13	8.36041
2004.37	-16.0391
2004.61	-16.1323
2004.86	-7.32944
2005.1	0.126648
2005.35	-1.08478
2005.59	-1.96033
2005.84	-0.997101
2006.08	-1.17032
2006.33	0.212402
2006.57	10.0779
2006.81	-5.28311
2007.06	-8.84512
2007.3	6.19498
2007.55	4.9808
2007.79	13.5787
2008.04	7.35449
2008.28	1.31827
2008.53	10.8925
2008.77	-1.01904
2009.01	-5.34534
2009.26	2.1868
2009.5	-6.80478
2009.75	-11.6928
2009.99	4.28159
2010.24	-9.47327
2010.48	-0.812347
2010.73	-3.88306
2010.97	-1.47794
2011.21	-1.01245
2011.46	0.0490723
2011.7	1.47968
2011.95	19.1717
2012.19	5.12946
2012.43	1.32709
2012.68	19.1871
2012.92	-17.5625
2013.17	14.3729
2013.42	-4.5766
2013.67	21.5845
2013.91	-3.91202
2014.16	3.47842
2014.41	-8.89313
2014.66	-10.9532
2014.9	8.59644
2015.15	-13.0361
2015.4	26.394
2015.64	-1.71472
2015.89	0.221741
2016.14	37.8186
2016.39	-12.9202
2016.63	2.18893
2016.88	6.20721
2017.13	26.9354
2017.37	0.595673
2017.62	13.6963
2017.87	-0.482513
2018.11	44.4892
2018.36	-5.42236
2018.61	-13.0744
2018.86	-16.0139
2019.1	-4.88522
2019.35	8.0983
2019.6	12.651
2019.84	-4.28351
2020.09	8.7796
2020.34	4.06726
2020.58	0.311707
2020.83	2.16663
2021.08	4.96072
2021.33	2.16971
2021.57	-9.98587
2021.82	5.93765
2022.07	-3.44672
2022.31	0.265808
2022.56	18.9425
2022.81	11.381
2023.05	-18.6603
2023.3	17.7375
2023.55	-2.92426
2023.8	19.4449
2024.04	-1.20996
2024.29	8.06143
2024.54	21.0763
2024.78	10.6744
2025.03	31.0977
2025.27	-7.31567
2025.52	0.975616
2025.77	17.6675
2026.02	-13.2214
2026.26	10.9066
2026.51	5.34479
2026.76	-3.8541
2027	-2.70123
2027.25	5.03873
2027.5	-5.87848
2027.74	-7.56699
2027.99	1.74185
2028.23	-8.76797
2028.48	23.6089
2028.73	-10.0187
2028.98	6.76773
2029.22	-3.17032
2029.47	10.1664
2029.72	16.1216
2029.96	5.19553
2030.21	-15.7392
2030.45	-1.19794
2030.7	5.31091
2030.95	-8.02893
2031.19	-9.64542
2031.44	14.8192
2031.69	-21.626
2031.93	11.9651
2032.18	16.6404
2032.43	-21.5211
2032.67	-8.34198
2032.92	4.85947
2033.17	5.91101
2033.41	14.4138
2033.66	11.6843
2033.91	-16.2612
2034.15	19.3241
2034.4	-28.5406
2034.64	3.93344
2034.89	-1.09552
2035.14	-16.1133
2035.38	-8.50528
2035.63	-17.7245
2035.87	2.08139
2036.12	-7.94522
2036.37	9.06607
2036.61	-0.302979
2036.86	-7.02997
2037.11	27.5681
2037.35	-6.00284
2037.6	11.7592
2037.84	5.19571
2038.09	25.7284
2038.34	1.37613
2038.58	5.99872
2038.83	4.07297
2039.08	-2.5253
2039.32	-5.38434
2039.57	-14.7854
2039.81	19.7108
2040.06	11.2245
2040.31	7.3873
2040.55	3.55521
2040.8	2.52979
2041.04	5.242
2041.29	16.3574
2041.54	-6.08344
2041.78	10.6689
2042.03	5.05283
2042.27	2.20752
2042.52	1.23285
2042.77	-1.63699
2043.01	9.51529
2043.26	19.7621
2043.5	-1.63623
2043.75	15.235
2044	9.7876
2044.24	8.07224
2044.49	8.12747
2044.73	0.646545
2044.98	-10.6304
2045.23	5.99631
2045.47	24.3063
2045.72	-0.412384
2045.96	-5.90109
2046.21	-5.40863
2046.45	34.4595
2046.7	7.01517
2046.95	6.66904
2047.19	-0.128632
2047.44	-9.44797
2047.68	0.715271
2047.93	-10.7549
2048.17	3.15549
2048.42	5.96756
2048.67	6.91766
2048.91	-16.3666
2049.16	-4.20978
2049.4	-10.6481
2049.65	13.6804
2049.89	0.721558
2050.14	-8.48404
2050.39	26.1596
2050.63	-9.2261
2050.88	-17.5791
2051.12	-3.54752
2051.37	2.97055
2051.61	-7.37506
2051.86	15.868
2052.11	0.925415
2052.35	-16.8076
2052.6	14.0632
2052.84	-17.6739
2053.09	-13.8969
2053.33	-8.23608
2053.58	4.91501
2053.82	-7.14249
2054.07	-7.91296
2054.31	-6.91174
2054.56	10.9084
2054.8	15.5991
2055.05	1.5603
2055.3	11.8324
2055.54	-5.9635
2055.79	16.3977
2056.03	11.6819
2056.28	-4.22855
2056.52	14.4369
2056.77	13.4637
2057.01	-11.7959
2057.26	5.96262
2057.5	-15.5182
2057.75	-7.0769
2058	0.447113
2058.24	13.5939
2058.49	-1.31271
2058.73	22.163
2058.98	6.34268
2059.22	6.4194
2059.47	-5.69193
2059.71	-15.03
2059.96	7.45892
2060.2	-12.1919
2060.45	1.80847
2060.69	10.1803
2060.94	28.8602
2061.18	-2.91516
2061.43	-6.60699
2061.67	-9.37839
2061.92	20.5989
2062.16	-2.79797
2062.41	-13.0829
2062.65	-6.50174
2062.9	-2.71689
2063.14	22.6242
2063.39	-17.5887
2063.63	-22.2153
2063.88	6.88159
2064.12	-5.26004
2064.37	-2.41626
2064.61	15.4247
2064.86	-8.90463
2065.1	4.2753
2065.35	11.864
2065.59	18.5444
2065.84	2.69681
2066.08	10.2951
2066.33	-11.2242
2066.57	-11.1743
2066.82	8.56284
2067.06	-20.5092
2067.31	0.194916
2067.55	-21.3765
2067.8	-4.41931
2068.04	2.21844
2068.29	-13.7055
2068.53	11.7102
2068.78	-5.18381
2069.02	0.511871
2069.27	-21.1031
2069.51	14.571
2069.76	2.25275
2070	-0.716278
2070.25	3.92273
2070.49	15.2301
2070.73	-4.34512
2070.98	8.05524
2071.22	-2.10153
2071.47	20.4494
2071.71	15.6403
2071.96	13.2412
2072.2	-14.8591
2072.45	3.01224
2072.69	-10.1934
2072.94	10.5145
2073.18	6.72049
2073.43	5.78165
2073.67	3.88284
2073.92	12.3758
2074.16	17.0995
2074.4	16.1833
2074.65	4.92746
2074.89	16.3014
2075.14	1.32849
2075.38	-1.37289
2075.63	15.7597
2075.87	8.41098
2076.12	-5.61206
2076.36	-6.48782
2076.6	-3.6434
2076.85	2.98428
2077.09	2.00571
2077.34	11.3744
2077.58	32.997
2077.83	23.3922
2078.07	-2.10739
2078.31	-18.0941
2078.56	27.2617
2078.8	0.884277
2079.05	-3.79736
2079.29	-22.6159
2079.54	2.95117
2079.78	-11.9869
2080.03	0.364868
2080.27	-6.18234
2080.51	-7.06726
2080.76	5.26721
2081	-1.33829
2081.25	-12.7087
2081.49	17.507
2081.74	12.7766
2081.98	20.3357
2082.22	21.2711
2082.47	12.8013
2082.71	7.16431
2082.96	9.07962
2083.2	-7.91855
2083.45	1.53049
2083.69	11.9153
2083.93	-6.99304
2084.18	14.746
2084.42	20.4256
2084.67	-6.97702
2084.91	10.9878
2085.15	13.8394
2085.4	12.9027
2085.64	8.18161
2085.89	-10.7119
2086.13	-5.01236
2086.37	27.2237
2086.62	2.76364
2086.86	-11.337
2087.11	28.4335
2087.35	12.4018
2087.59	23.823
2087.84	6.83069
2088.08	19.1419
2088.32	12.5289
2088.57	4.02643
2088.81	1.20874
2089.06	22.0568
2089.3	-8.20981
2089.54	24.9851
2089.79	7.06381
2090.03	-9.88361
2090.28	-9.84561
2090.52	-2.24371
2090.76	13.8928
2091.01	16.7752
2091.25	26.2978
2091.5	15.9215
2091.74	-2.04138
2091.98	5.63931
2092.23	3.85333
2092.47	15.3573
2092.72	34.4613
2092.96	18.4641
2093.2	15.7215
2093.45	11.071
2093.69	1.66977
2093.93	16.0171
2094.18	-5.76184
2094.42	0.964447
2094.66	7.64706
2094.91	4.80069
2095.15	-3.76627
2095.39	13.3267
2095.64	-2.8862
2095.88	-7.6955
2096.13	0.813873
2096.37	11.2308
2096.61	-19.1895
2096.86	-3.99567
2097.1	-9.70267
2097.34	16.8525
2097.59	2.54181
2097.83	8.17435
2098.07	19.5434
2098.32	21.429
2098.56	10.9757
2098.8	15.6761
2099.05	9.98889
2099.29	-2.35162
2099.53	9.02335
2099.78	-1.42487
2100.02	3.32095
2100.27	3.33127
2100.51	15.6872
2100.75	5.27454
2101	15.7588
2101.24	12.0586
2101.48	-0.208221
2101.73	11.2402
2101.97	4.62183
2102.21	30.2746
2102.45	8.42737
2102.7	8.43707
2102.94	16.9712
2103.18	-2.07278
2103.43	-11.6311
2103.67	21.5643
2103.92	0.677399
2104.16	10.1573
2104.4	9.22266
2104.64	-12.5736
2104.89	16.9206
2105.13	6.53763
2105.37	16.0935
2105.62	41.8147
2105.86	4.85492
2106.1	4.93115
2106.35	-10.2288
2106.59	1.22052
2106.83	12.6545
2107.08	-1.58136
2107.32	-18.6545
2107.56	21.2982
2107.8	0.350098
2108.05	17.4001
2108.29	-9.29388
2108.53	20.0703
2108.78	-8.51401
2109.02	9.46326
2109.26	-2.901
2109.51	27.5066
2109.75	15.2653
2109.99	16.2985
2110.23	14.4111
2110.48	-13.1285
2110.72	-16.9206
2110.96	1.13693
2111.21	16.3461
2111.45	23.0012
2111.69	17.2848
2111.93	23.8916
2112.18	6.76743
2112.42	5.80524
2112.66	14.359
2112.91	10.6049
2113.15	-5.49591
2113.39	23.0527
2113.63	10.8014
2113.88	-9.07376
2114.12	-2.37811
2114.36	10.9166
2114.61	-1.46103
2114.85	4.24292
2115.09	-3.33466
2115.33	0.484497
2115.58	0.474701
2115.82	4.25479
2116.06	-8.11636
2116.31	27.019
2116.55	5.10355
2116.79	6.94415
2117.03	29.7126
2117.28	17.3574
2117.52	-0.690643
2117.76	23.074
2118	-4.49103
2118.25	1.16049
2118.49	8.70551
2118.73	12.4163
2118.97	-17.0908
2119.22	35.9579
2119.46	23.5582
2119.7	11.1642
2119.94	8.25589
2120.19	10.0952
2120.43	-26.9026
2120.67	1.51581
2120.91	19.5396
2121.16	-8.82086
2121.4	15.8642
2121.64	20.6964
2121.88	5.62527
2122.13	5.71432
2122.37	10.5418
2122.61	-1.71613
2122.85	-2.60159
2123.1	0.302856
2123.34	-3.44342
2123.58	1.34229
2123.82	-10.0263
2124.07	-2.44833
2124.31	-0.578522
2124.55	17.4043
2124.79	10.6779
2125.03	19.0812
2125.28	-9.52393
2125.52	3.60159
2125.76	-2.19257
2126	-11.7579
2126.25	17.5
2126.49	-7.19171
2126.73	8.8317
2126.97	-0.69339
2127.21	11.5371
2127.46	-4.60303
2127.7	16.1784
2127.94	8.60651
2128.18	-6.53119
2128.43	-8.44781
2128.67	17.0631
2128.91	17.0753
2129.15	-10.3249
2129.39	-9.3826
2129.64	-11.2895
2129.88	-18.8626
2130.12	15.1555
2130.36	1.91833
2130.6	-8.48648
2130.85	6.61661
2131.09	-0.965729
2131.33	8.44937
2131.57	23.5203
2131.81	23.4727
2132.06	-3.00818
2132.3	19.6291
2132.54	-20.0526
2132.78	1.60309
2133.02	23.2544
2133.27	19.4553
2133.51	3.4201
2133.75	15.7133
2133.99	-11.628
2134.23	11.0354
2134.48	4.4567
2134.72	0.703949
2134.96	6.36862
2135.2	14.8631
2135.44	15.8077
2135.68	9.1951
2135.93	-3.09561
2136.17	10.0636
2136.41	2.42075
2136.65	4.21228
2136.89	0.40097
2137.14	2.31311
2137.38	11.7672
2137.62	-6.1272
2137.86	-4.1925
2138.1	-0.333923
2138.34	12.8536
2138.59	-8.92169
2138.83	-8.03958
2139.07	-5.13718
2139.31	-0.299194
2139.55	-2.09256
2139.79	-10.7389
2140.03	12.7057
2140.28	13.5969
2140.52	11.6692
2140.76	23.8813
2141	21.027
2141.24	1.23099
2141.49	17.2249
2141.73	21.9512
2141.97	18.1215
2142.21	2.98895
2142.45	20.8549
2142.69	12.3954
2142.93	2.12149
2143.18	0.305115
2143.42	2.48767
2143.66	8.01254
2143.9	10.8902
2144.14	2.44348
2144.38	20.3783
2144.62	-24.6084
2144.87	33.8263
2145.11	-5.59421
2145.35	12.0836
2145.59	1.78342
2145.83	-1.94952
2146.07	13.0869
2146.31	13.0689
2146.55	18.6905
2146.8	13.0329
2147.04	5.49661
2147.28	18.6312
2147.52	11.0741
2147.76	-9.63251
2148	11.9451
2148.24	0.64743
2148.48	8.13315
2148.73	-14.4358
2148.97	-14.467
2149.21	-6.99512
2149.45	14.5368
2149.69	-9.93704
2149.93	-9.12793
2150.17	7.68744
2150.42	-16.7747
2150.66	6.60541
2150.9	8.45609
2151.14	15.0226
2151.38	-1.80673
2151.62	7.63922
2151.86	-0.750427
2152.1	-13.8124
2152.34	1.22855
2152.58	11.6088
2152.83	29.3864
2153.07	-0.660828
2153.31	-12.9003
2153.55	3.92914
2153.79	3.91187
2154.03	11.3897
2154.27	-4.5882
2154.51	7.51871
2154.75	20.5209
2154.99	-7.70645
2155.24	17.435
2155.48	-7.03491
2155.72	7.82892
2155.96	10.5393
2156.2	-8.22937
2156.44	-19.4932
2156.68	-7.37039
2156.92	-6.43881
2157.16	-3.63235
2157.4	-9.22296
2157.64	-6.38269
2157.89	-5.38812
2158.13	19.92
2158.37	1.29858
2158.61	-7.08615
2158.85	-18.2924
2159.09	-15.4904
2159.33	-6.16074
2159.57	8.76053
2159.81	18.0584
2160.05	9.59003
2160.29	2.04343
2160.53	0.100922
2160.77	6.57095
2161.01	7.44754
2161.25	22.3519
2161.5	-0.0504456
2161.74	-14.999
2161.98	0.842163
2162.22	27.8967
2162.46	14.8475
2162.7	-6.59558
2162.94	-0.0582275
2163.18	-6.60587
2163.42	-6.63824
2163.66	-24.3826
2163.9	-1.09033
2164.14	-2.04788
2164.38	5.3822
2164.62	8.11508
2164.86	-5.01144
2165.11	8.92108
2165.35	14.5385
2165.59	-8.70834
2165.83	13.6732
2166.07	4.3728
2166.31	15.5717
2166.55	-7.75198
2166.79	20.1737
2167.03	-3.15656
2167.27	27.5213
2167.51	-7.90701
2167.75	-7.04224
2167.99	-12.7153
2168.23	14.1115
2168.47	-4.63297
2168.71	20.4272
2168.95	-7.45822
2169.19	9.30881
2169.43	-2.71866
2169.67	13.1751
2169.91	10.4985
2170.15	8.77377
2170.39	2.40775
2170.63	-9.60651
2170.87	5.33673
2171.11	5.32523
2171.35	22.9586
2171.59	-9.646
2171.83	2.32855
2172.07	-4.41348
2172.31	-2.66852
2172.56	1.92566
2172.79	-9.27319
2173.04	11.1342
2173.28	-12.0907
2173.51	14.86
2173.76	15.7968
2174	-5.53467
2174.24	27.0462
2174.48	6.64813
2174.72	2.03
2174.96	5.76489
2175.2	-7.23694
2175.44	-6.30109
2175.68	5.77054
2175.92	15.9825
2176.16	-5.3902
2176.4	10.4008
2176.64	4.80893
2176.88	-7.31042
2177.12	30.7661
2177.36	-24.9557
2177.6	-0.782043
2177.84	-0.763397
2178.08	-16.5503
2178.32	-7.23553
2178.55	-1.68216
2178.8	-5.4772
2179.03	4.6799
2179.28	9.32529
2179.52	0.997101
2179.75	-11.9841
2180	2.88809
2180.23	-6.38599
2180.47	-5.44763
2180.71	1.98254
2180.95	-13.8105
2181.19	3.81924
2181.43	-13.8166
2181.67	-9.18381
2181.91	2.85443
2182.15	0.0427246
2182.39	4.67651
2182.63	19.4895
2182.87	13.8997
2183.11	6.45648
2183.35	10.1102
2183.59	2.62302
2183.83	-9.5184
2184.07	-23.4807
2184.31	-10.5457
2184.55	7.94913
2184.79	9.79785
2185.03	4.26233
2185.27	7.08875
2185.51	10.8346
2185.75	-11.3693
2185.99	-6.68118
2186.23	5.44006
2186.47	-4.68417
2186.7	-18.5236
2186.95	19.6178
2187.18	7.67599
2187.42	14.2905
2187.66	6.05032
2187.9	-18.9378
2188.14	12.6718
2188.38	11.7166
2188.62	9.80963
2188.86	16.2509
2189.1	7.83099
2189.34	-8.01749
2189.58	16.9492
2189.82	14.9867
2190.06	28.8055
2190.3	32.4756
2190.54	23.2018
2190.78	1.90073
2191.01	-0.839111
2191.25	1.98264
2191.49	-6.35019
2191.73	-14.6638
2191.97	25.2493
2192.21	10.4563
2192.45	15.1367
2192.69	-14.504
2192.93	5.01797
2193.17	15.2939
2193.41	8.8725
2193.65	2.44531
2193.89	10.89
2194.13	6.41034
2194.36	16.8132
2194.6	0.211456
2194.84	-7.1532
2195.08	-6.23083
2195.32	-0.682465
2195.56	9.51746
2195.8	-3.53711
2196.04	14.053
2196.28	4.67383
2196.52	4.5629
2196.76	15.6
2197	9.02585
2197.23	18.2468
2197.47	12.6307
2197.71	27.4285
2197.95	11.6737
2198.19	2.41943
2198.43	21.9483
2198.67	10.9125
2198.91	24.0071
2199.15	2.77496
2199.38	16.8369
2199.62	-4.41382
2199.86	19.8721
2200.1	0.48114
2200.34	36.0018
2200.58	11.0905
2200.82	34.5434
2201.06	3.97186
2201.3	13.403
2201.54	-4.2049
2201.77	3.11664
2202.01	0.909668
2202.25	8.54437
2202.49	14.5391
2202.73	6.42749
2202.97	17.2718
2203.21	8.26367
2203.45	11.8939
2203.68	9.96982
2203.92	23.3174
2204.16	5.84137
2204.4	-1.10727
2204.64	30.5779
2204.88	11.0673
2205.12	17.3574
2205.36	19.8375
2205.59	13.9761
2205.83	16.5752
2206.07	36.9836
2206.31	-0.187469
2206.55	26.8698
2206.79	8.29221
2207.03	11.8892
2207.26	19.3582
2207.5	32.4397
2207.74	24.1491
2207.98	-1.81107
2208.22	45.7238
2208.46	-6.29834
2208.7	1.22638
2208.93	-2.42581
2209.17	22.7735
2209.41	29.3399
2209.65	2.3645
2209.89	34.0405
2210.13	27.5194
2210.36	5.19
2210.6	33.1875
2210.84	9.02924
2211.08	16.5493
2211.32	13.8209
2211.56	16.6806
2211.8	20.4791
2212.03	-3.67618
2212.27	7.59735
2212.51	8.59174
2212.75	3.96252
2212.99	-2.58221
2213.23	29.1035
2213.46	21.6151
2213.7	12.2404
2213.94	4.72708
2214.18	10.349
2214.42	18.8204
2214.66	17.1125
2214.89	19.1274
2215.13	14.5076
2215.37	22.9485
2215.61	6.17603
2215.85	8.06726
2216.08	2.48215
2216.32	9.96091
2216.56	3.42813
2216.8	15.5636
2217.04	16.4884
2217.28	1.54465
2217.51	-0.315735
2217.75	36.1156
2217.99	21.2022
2218.23	-1.1994
2218.47	16.5432
2218.7	24.9694
2218.94	16.6094
2219.18	13.8654
2219.42	9.26559
2219.66	3.73282
2219.9	-1.82776
2220.13	5.69827
2220.37	5.74017
2220.61	23.4961
2220.85	-8.28864
2221.09	9.46219
2221.32	2.89166
2221.56	10.2897
2221.8	4.5972
2222.04	-11.3474
2222.27	14.7363
2222.51	-12.3738
2222.75	-0.242065
2222.99	-1.14453
2223.23	-2.9563
2223.46	23.2473
2223.7	-1.90176
2223.94	-24.2355
2224.18	-19.4635
2224.42	5.88193
2224.65	16.274
2224.89	-3.27222
2225.13	0.550507
2225.37	-6.85522
2225.6	-1.15033
2225.84	14.8696
2226.08	1.84491
2226.32	-1.8237
2226.56	-11.1128
2226.79	12.3698
2227.03	-2.5444
2227.27	3.15155
2227.51	-4.2883
2227.74	15.4494
2227.98	-12.6544
2228.22	-2.34241
2228.46	-14.5535
2228.69	12.6183
2228.93	24.7868
2229.17	11.6468
2229.41	-1.4924
2229.64	-1.48834
2229.88	8.88766
2230.12	26.8047
2230.36	-17.1929
2230.6	10.0808
2230.83	2.64517
2231.07	-12.2989
2231.31	-5.65198
2231.55	10.3961
2231.78	-13.937
2232.02	-8.23206
2232.26	4.05573
2232.5	3.18826
2232.73	-6.1409
2232.97	2.38754
2233.21	8.09998
2233.45	8.16714
2233.68	17.6436
2233.92	1.71765
2234.16	14.9466
2234.39	12.1665
2234.63	26.269
2234.87	7.41879
2235.11	3.61545
2235.34	-1.14832
2235.58	17.5445
2235.82	2.40973
2236.06	-4.16248
2236.29	4.31812
2236.53	16.5661
2236.77	2.48138
2237	14.7252
2237.24	3.45956
2237.48	-3.04184
2237.72	5.5022
2237.95	-15.0732
2238.19	10.4958
2238.43	-6.32635
2238.67	22.9857
2238.9	7.05795
2239.14	18.4826
2239.38	15.7863
2239.61	4.49155
2239.85	-1.19711
2240.09	-14.4473
2240.33	-6.99377
2240.56	0.468079
2240.8	20.225
2241.04	10.9508
2241.27	18.6345
2241.51	-9.64575
2241.75	10.1922
2241.99	-7.70831
2242.22	14.0194
2242.46	12.1642
2242.7	-15.1693
2242.93	-16.0715
2243.17	30.1953
2243.41	-18.9083
2243.64	13.1422
2243.88	8.37033
2244.12	14.0059
2244.36	9.27759
2244.59	-2.97885
2244.83	-12.3656
2245.07	4.72699
2245.3	32.2613
2245.54	-12.9567
2245.78	13.5845
2246.01	8.92819
2246.25	6.16623
2246.49	26.0978
2246.72	10.0803
2246.96	-2.1828
2247.2	-8.75455
2247.43	17.7923
2247.67	16.8828
2247.91	9.32672
2248.14	17.8396
2248.38	16.8736
2248.62	14.958
2248.85	5.47168
2249.09	6.39786
2249.33	-13.4935
2249.56	0.684601
2249.8	1.68948
2250.04	-7.7341
2250.27	3.61853
2250.51	-11.5683
2250.75	-5.95709
2250.98	22.3516
2251.22	-10.8393
2251.46	5.17316
2251.69	-10.0061
2251.93	-1.51767
2252.17	15.5118
2252.4	-7.14459
2252.64	1.41727
2252.88	4.32272
2253.11	12.0016
2253.35	5.56442
2253.59	1.9071
2253.82	8.63956
2254.06	15.3543
2254.3	6.88763
2254.53	8.84927
2254.77	-7.22437
2255.01	-14.8062
2255.24	15.4982
2255.48	3.1871
2255.72	-18.6215
2255.95	14.5749
2256.19	-2.48129
2256.42	10.8518
2256.66	-9.95361
2256.9	15.7182
2257.13	22.4161
2257.37	-7.89697
2257.61	13.0383
2257.84	1.69733
2258.08	17.8741
2258.32	10.2945
2258.55	6.50775
2258.79	-17.2159
2259.02	10.3564
2259.26	-13.3461
2259.5	0.951416
2259.73	-2.82001
2259.97	8.60797
2260.2	16.2482
2260.44	2.97485
2260.68	9.65927
2260.91	1.13196
2261.15	-2.6225
2261.39	25.0663
2261.62	7.06372
2261.86	17.5417
2262.1	-10.9862
2262.33	21.3915
2262.57	1.43271
2262.8	26.2245
2263.04	16.7777
2263.28	5.42642
2263.51	29.3273
2263.75	-21.0625
2263.98	-11.4229
2264.22	-1.76111
2264.46	-7.36002
2264.69	18.5168
2264.93	6.20786
2265.16	2.46793
2265.4	-10.8358
2265.64	11.1872
2265.87	-13.642
2266.11	8.33707
2266.34	11.1694
2266.58	20.6354
2266.81	-16.692
2267.05	11.8571
2267.29	-1.58771
2267.52	-3.55884
2267.76	-3.6153
2267.99	-6.53705
2268.23	14.3633
2268.47	6.66791
2268.7	14.2682
2268.94	13.3203
2269.17	-8.57077
2269.41	3.89468
2269.65	-6.51489
2269.88	22.2072
2270.12	-13.0136
2270.35	-18.6353
2270.59	7.25543
2270.82	-2.23901
2271.06	-5.0694
2271.3	5.51266
2271.53	17.0415
2271.77	38.1176
2272	-7.73956
2272.24	-5.76978
2272.47	4.78131
2272.71	7.65207
2272.95	6.70477
2273.18	17.2412
2273.42	-15.2774
2273.65	12.4831
2273.89	-11.4286
2274.12	-4.7186
2274.36	17.3044
2274.6	8.69968
2274.83	-2.77536
2275.07	7.76593
2275.3	-2.74695
2275.54	-1.77786
2275.77	-6.55045
2276.01	19.2817
2276.24	5.92215
2276.48	-6.45337
2276.72	14.7003
2276.95	14.7722
2277.18	-0.498657
2277.42	-14.8098
2277.66	9.26675
2277.89	20.9048
2278.13	10.4827
2278.36	25.0299
2278.6	12.5932
2278.83	6.84949
2279.07	6.84573
2279.3	-5.66122
2279.54	6.79376
2279.78	4.8017
2280.01	-6.88095
2280.24	-3.14984
2280.48	-8.04681
2280.72	8.16989
2280.95	-7.24863
2281.19	-5.38867
2281.42	9.90756
2281.66	-10.275
2281.89	-4.56454
2282.13	12.7183
2282.36	4.10822
2282.6	12.7789
2282.83	9.00558
2283.07	3.3251
2283.3	-2.35974
2283.54	-3.23022
2283.77	6.49753
2284.01	-10.6369
2284.24	-13.3874
2284.48	9.8345
2284.71	2.22769
2284.95	13.8017
2285.19	19.6489
2285.42	0.476837
2285.65	-13.9406
2285.89	22.6313
2286.12	-17.8681
2286.36	0.274078
2286.59	13.7196
2286.83	-7.42365
2287.06	-0.642609
2287.3	-2.41525
2287.54	2.52475
2287.77	-1.284
2288	4.52414
2288.24	-13.6941
2288.47	-11.8001
2288.71	-0.300323
2288.94	-7.10236
2289.18	-11.024
2289.41	14.8565
2289.65	0.27887
2289.88	6.88495
2290.12	2.88391
2290.35	-16.4028
2290.59	-14.5222
2290.82	5.65826
2291.06	-4.918
2291.29	26.8535
2291.53	1.93732
2291.76	-2.76596
2292	17.5125
2292.23	8.90466
2292.47	8.95764
2292.7	13.8317
2292.94	24.503
2293.17	22.6502
2293.41	3.43634
2293.64	3.4801
2293.88	-1.30832
2294.11	5.45041
2294.34	19.8724
2294.58	13.0747
2294.81	1.44855
2295.05	15.8245
2295.28	6.13257
2295.52	13.7804
2295.75	-14.2054
2295.99	7.88538
2296.22	-5.64319
2296.46	-7.65604
2296.69	1.81842
2296.93	8.52518
2297.16	4.69803
2297.39	4.73975
2297.63	2.87173
2297.86	-1.87082
2298.1	24.219
2298.33	21.4477
2298.57	6.10403
2298.8	-5.41776
2299.04	-5.35782
2299.27	-3.34949
2299.51	-7.14044
2299.74	-3.22977
2299.97	-24.4258
2300.21	6.43021
2300.44	2.56595
2300.68	19.9133
2300.91	14.1604
2301.15	2.63602
2301.38	6.53391
2301.61	18.1489
2301.85	16.2366
2302.08	8.51544
2302.32	11.3931
2302.55	-6.01907
2302.79	15.1833
2303.02	-3.15225
2303.25	-4.13205
2303.49	4.52786
2303.72	-0.309845
2303.96	1.62036
2304.19	-13.795
2304.43	19.0781
2304.66	-17.56
2304.89	20.1308
2305.13	-27.146
2305.36	-8.73798
2305.6	1.9216
2305.83	7.73019
2306.07	18.3823
2306.3	16.4907
2306.53	5.89859
2306.77	-1.8237
2307	2.04422
2307.24	7.83359
2307.47	-9.58072
2307.7	9.71216
2307.94	-0.967316
2308.17	-7.76205
2308.41	15.3904
2308.64	6.66034
2308.87	-12.6672
2309.11	23.0918
2309.34	-11.6443
2309.58	-21.2567
2309.81	1.05551
2310.04	12.7659
2310.28	-2.63693
2310.51	-9.37897
2310.75	14.8121
2310.98	-14.2234
2311.21	-2.6546
2311.45	-4.67206
2311.68	5.7612
2311.92	-5.09357
2312.15	11.1973
2312.38	-9.16745
2312.62	18.7704
2312.85	9.05325
2313.08	18.6533
2313.32	19.6106
2313.55	6.14139
2313.79	0.455048
2314.02	5.41663
2314.25	-6.07272
2314.49	-1.14258
2314.72	7.66098
2314.95	-14.4471
2315.19	9.84625
2315.42	0.232086
2315.66	-6.63086
2315.89	-15.4192
2316.12	-11.6194
2316.36	2.78793
2316.59	-3.19873
2316.82	10.2234
2317.06	4.37955
2317.29	-1.42139
2317.52	-3.33383
2317.76	14.0688
2317.99	0.642639
2318.23	6.50266
2318.46	-27.4194
2318.69	-8.15805
2318.93	10.1436
2319.16	6.22754
2319.39	-0.586182
2319.63	10.9457
2319.86	8.97882
2320.09	4.13086
2320.33	14.7492
2320.56	-1.64203
2320.79	19.5877
2321.03	-1.60471
2321.26	6.17227
2321.5	12.0272
2321.73	-8.17828
2321.96	6.38614
2322.2	2.62683
2322.43	13.3707
2322.66	0.903534
2322.9	-0.0228577
2323.13	-19.3673
2323.36	-11.6128
2323.6	3.88712
2323.83	11.649
2324.06	3.94452
2324.3	-14.4108
2324.53	11.6895
2324.76	-9.59229
2325	-6.76749
2325.23	8.59692
2325.46	0.749329
2325.7	0.676025
2325.93	-1.31537
2326.16	-6.20242
2326.4	-10.1249
2326.63	14.903
2326.86	5.18518
2327.09	0.295135
2327.33	-14.2372
2327.56	-0.803253
2327.79	30.0056
2328.03	19.3498
2328.26	-19.2329
2328.49	10.6734
2328.73	-3.77069
2328.96	4.92444
2329.19	11.612
2329.43	33.7155
2329.66	10.5084
2329.89	-2.03378
2330.13	11.4478
2330.36	17.2881
2330.59	-17.399
2330.82	-3.92862
2331.06	4.72134
2331.29	9.53857
2331.52	2.83664
2331.76	-10.5816
2331.99	10.6845
2332.22	14.6414
2332.46	0.108154
2332.69	1.98251
2332.92	-0.940155
2333.16	-0.00750732
2333.39	17.2943
2333.62	0.901123
2333.85	-12.5948
2334.09	-1.05771
2334.32	1.80054
2334.55	-16.5201
2334.79	-12.7384
2335.02	12.2383
2335.25	21.8389
2335.48	12.2304
2335.72	11.27
2335.95	-5.04257
2336.18	-11.7288
2336.41	16.1724
2336.65	20.0035
2336.88	-4.99692
2337.11	-4.02673
2337.34	2.71439
2337.58	-4.96997
2337.81	-9.76639
2338.04	-6.88562
2338.28	-10.7286
2338.51	-3.02811
2338.74	-5.90176
2338.97	1.8042
2339.21	-12.5732
2339.44	-17.3434
2339.67	5.75266
2339.91	2.88693
2340.14	-5.76221
2340.37	6.71832
2340.6	4.76718
2340.84	-3.90845
2341.07	4.69055
2341.3	-7.85834
2341.53	-12.7344
2341.77	-3.23328
2342	-4.25848
2342.23	9.13986
2342.46	-11.023
2342.7	3.34189
2342.93	2.37875
2343.16	6.22736
2343.39	6.2561
2343.63	3.42017
2343.86	3.44061
2344.09	36.0535
2344.32	2.54739
2344.56	-2.18356
2344.79	-5.00867
2345.02	-12.6486
2345.25	5.58249
2345.49	16.129
2345.72	6.52792
2345.95	12.2261
2346.18	-16.5349
2346.41	-9.85031
2346.65	8.36377
2346.88	22.7517
2347.11	2.66879
2347.34	-6.89227
2347.58	-2.08661
2347.81	-10.6644
2348.04	17.1543
2348.27	19.1389
2348.5	-2.79483
2348.74	0.153503
2348.97	-4.58777
2349.2	12.6665
2349.43	1.16739
2349.67	0.114227
2349.9	-20.0711
2350.13	-5.83994
2350.36	-10.7668
2350.59	1.45679
2350.83	7.73749
2351.06	3.24136
2351.29	-2.82687
2351.52	-22.6465
2351.75	-6.94022
2351.99	13.4491
2352.22	2.60989
2352.45	-4.93683
2352.68	4.70926
2352.91	23.6365
2353.15	5.25281
2353.38	1.2572
2353.61	13.7918
2353.84	7.15393
2354.07	-6.18524
2354.31	5.31223
2354.54	-3.2095
2354.77	0.750061
2355	1.85016
2355.23	-11.4353
2355.47	3.85526
2355.7	-10.3995
2355.93	-3.6944
2356.16	8.71799
2356.39	-5.55951
2356.63	-4.64496
2356.86	-2.83121
2357.09	-4.79037
2357.32	6.62607
2357.55	-0.968323
2357.79	-19.9654
2358.02	15.2342
2358.25	-5.65128
2358.48	2.94287
2358.71	4.8931
2358.94	18.1979
2359.18	-13.1113
2359.41	4.04416
2359.64	16.4526
2359.87	-4.40518
2360.1	11.7625
2360.33	-0.574005
2360.57	2.27802
2360.8	4.18021
2361.03	6.08319
2361.26	-4.34726
2361.49	-9.08426
2361.72	-12.8719
2361.96	9.88239
2362.19	10.8275
2362.42	-13.8119
2362.65	1.3454
2362.88	-20.4182
2363.11	22.2106
2363.34	-18.4617
2363.58	17.5453
2363.81	-7.95169
2364.04	-6.9462
2364.27	7.30148
2364.5	18.7005
2364.73	-12.4659
2364.97	-9.57788
