#Acq. time (s)=	30
#Accumulations=	2
#Range (cm-¹)=	1200...2999
#Windows=	5
#Auto scanning=	Off
#Autofocus=	Off
#Macrospot=	Off
#AutoExposure=	Off
#Spike filter=	Multiple accum.
#Delay time (s)=	2
#Binning=	1
#Readout mode=	Signal
#DeNoise=	Off
#ICS correction=	On
#Dark correction=	Off
#Inst. Process=	Off
#Detector Gain=	Best Dynamic
#Detector ADC=	50 kHz EM
#Detector EM gain=	150
#Detector temperature (°C)=	-60.09
#Instrument=	LabRAM HR Evol
#Detector=	SIN-EM FIVIS
#Objective=	x100_VIS_LWD
#Grating=	1800 (450-850nm)
#ND Filter=	100%
#Laser=	532nm_Edge
#Hole=	30.0125
#Temperature=	40
#Range=	Visible
#StageXY=	75x50mm Scan+
#StageZ=	Z motor
#X (µm)=	0
#Y (µm)=	0
#Z (µm)=	65
#Full time(mm:ss)=	5:33
#Project=	21_08_11
#Sample=	BU32
#Site=	
#Title=	BU32-B-FF2-FI02-V_1800 (450-850nm)_532nm_Edge_100%_x100_VIS_LWD_H30um_30sX2
#Remark=	
#Date=	13.08.2021 16:12
#Acquired=	13.08.2021 16:12:23
#Base:Fit=	16.12.2021 15:06:42
#Base:Sub=	16.12.2021 15:06:44
1200.05	14.4241
1200.33	0.350983
1200.61	-4.04126
1200.89	-6.3938
1201.16	-3.3876
1201.44	8.27252
1201.72	4.99228
1202	9.47495
1202.28	15.3676
1202.55	0.490631
1202.83	8.90393
1203.11	9.74609
1203.39	2.04086
1203.67	5.16116
1203.94	13.7697
1204.22	14.9182
1204.5	-1.25269
1204.78	7.23602
1205.06	10.3304
1205.33	-8.06534
1205.61	10.0327
1205.89	8.81091
1206.17	10.8069
1206.44	-0.0577087
1206.72	6.25082
1207	5.10498
1207.28	10.3925
1207.55	2.85724
1207.83	2.80646
1208.11	-5.83682
1208.39	-5.9126
1208.67	11.1273
1208.94	3.6138
1209.22	10.0314
1209.5	7.88126
1209.78	11.0375
1210.05	0.229309
1210.33	-2.02759
1210.61	2.14813
1210.89	-3.29874
1211.16	6.21753
1211.44	12.497
1211.72	3.84866
1212	0.571716
1212.27	-1.64075
1212.55	0.405121
1212.83	5.67618
1213.11	-12.4529
1213.38	-5.05356
1213.66	3.4928
1213.94	6.71851
1214.22	4.61264
1214.49	-2.82388
1214.77	2.5043
1215.05	4.63431
1215.33	-1.75824
1215.6	7.7525
1215.88	-7.24625
1216.16	-3.12064
1216.44	7.3887
1216.71	1.98492
1216.99	-12.968
1217.27	0.758881
1217.54	2.81992
1217.82	-3.60828
1218.1	1.64218
1218.38	-3.68848
1218.65	-7.93765
1218.93	9.0246
1219.21	0.515045
1219.49	0.467957
1219.76	-5.89127
1220.04	4.73682
1220.32	5.79593
1220.59	6.84323
1220.87	-10.1679
1221.15	8.87521
1221.43	11.9734
1221.7	-9.33365
1221.98	-2.05463
1222.26	-5.38229
1222.53	7.16733
1222.81	-4.60382
1223.09	-3.67462
1223.36	-1.6601
1223.64	5.62851
1223.92	6.61389
1224.2	5.50949
1224.47	-4.02359
1224.75	0.204651
1225.03	0.259125
1225.3	0.317352
1225.58	2.49051
1225.86	-5.95206
1226.13	0.37619
1226.41	-1.77841
1226.69	-8.15262
1226.96	-1.9678
1227.24	-7.5354
1227.52	8.06781
1227.79	-1.59052
1228.07	6.52637
1228.35	-6.33887
1228.63	-3.21292
1228.9	0.735474
1229.18	-2.70648
1229.45	0.219971
1229.73	4.12
1230.01	8.21045
1230.28	19.8607
1230.56	-2.39502
1230.84	-1.00729
1231.11	7.48624
1231.39	-8.2648
1231.67	4.35434
1231.94	-3.0271
1232.22	11.6924
1232.5	5.38846
1232.77	4.32016
1233.05	-5.12717
1233.33	-1.94049
1233.6	1.26028
1233.88	4.46313
1234.16	-1.77466
1234.43	-0.645752
1234.71	1.50192
1234.99	8.90906
1235.26	-5.74768
1235.54	7.96893
1235.82	2.72775
1236.09	-9.91168
1236.37	-3.63892
1236.65	1.5639
1236.92	-10.0888
1237.2	7.66299
1237.47	10.7053
1237.75	-5.14523
1238.03	1.04431
1238.3	-2.18396
1238.58	-4.3233
1238.86	15.5674
1239.13	10.3056
1239.41	-4.37595
1239.68	-0.177063
1239.96	19.7539
1240.24	4.05789
1240.51	0.948639
1240.79	-1.11548
1241.07	-7.41202
1241.34	5.12082
1241.62	-2.23917
1241.89	-6.41135
1242.17	3.06125
1242.45	10.4586
1242.72	4.24011
1243	11.5945
1243.27	8.46713
1243.55	14.7978
1243.83	-3.00568
1244.1	5.3761
1244.38	3.26544
1244.65	-9.36212
1244.93	3.14331
1245.21	-5.33279
1245.48	2.94614
1245.76	5.00214
1246.03	-3.38065
1246.31	2.9155
1246.59	7.11649
1246.86	7.10657
1247.14	-7.53836
1247.41	0.820374
1247.69	2.81241
1247.97	5.89078
1248.24	1.70599
1248.52	0.695251
1248.79	-0.306519
1249.07	13.291
1249.34	-10.7608
1249.62	7.04016
1249.9	-1.37198
1250.17	6.9212
1250.45	-8.81781
1250.72	13.0785
1251	5.72015
1251.27	-7.90167
1251.55	-5.85541
1251.83	-1.72263
1252.1	3.45215
1252.38	-1.82114
1252.65	6.4805
1252.93	0.200134
1253.2	2.30334
1253.48	9.67725
1253.76	-0.67749
1254.03	0.457123
1254.31	3.64145
1254.58	7.83856
1254.86	8.92694
1255.13	7.90286
1255.41	12.0802
1255.68	10.0237
1255.96	10.0674
1256.23	9.09412
1256.51	-0.267944
1256.79	-3.39822
1257.06	-8.65189
1257.34	2.82297
1257.61	-0.317474
1257.89	8.02481
1258.16	12.1849
1258.44	1.67584
1258.71	4.81015
1258.99	13.2222
1259.27	-5.51566
1259.54	-2.19934
1259.82	15.4796
1260.09	6.02185
1260.37	2.78067
1260.64	1.66867
1260.92	21.4478
1261.19	2.71033
1261.47	11.3745
1261.74	16.0136
1262.02	2.77728
1262.29	14.7425
1262.57	26.8575
1262.84	26.6256
1263.12	20.7512
1263.39	49.2502
1263.67	45.4315
1263.94	58.2749
1264.22	58.0267
1264.49	55.8436
1264.77	51.6763
1265.04	32.8617
1265.32	36.983
1265.59	10.8744
1265.87	14.0504
1266.14	21.4294
1266.42	13.1518
1266.7	10.1141
1266.97	11.2708
1267.24	-1.16171
1267.52	3.15182
1267.79	5.41071
1268.07	2.42279
1268.35	3.55765
1268.62	8.87024
1268.89	3.69525
1269.17	11.0361
1269.44	12.0263
1269.72	16.1286
1269.99	2.45523
1270.27	11.8134
1270.54	10.7208
1270.82	14.8977
1271.09	15.9182
1271.37	4.44379
1271.64	23.3761
1271.92	2.55807
1272.19	6.89346
1272.47	4.91125
1272.74	11.3071
1273.02	14.5641
1273.29	22.0141
1273.57	17.9339
1273.84	-0.865326
1274.12	10.7113
1274.39	17.0116
1274.66	6.54022
1274.94	9.74023
1275.21	29.7482
1275.49	18.288
1275.76	3.69604
1276.04	13.2267
1276.31	13.3135
1276.59	12.3312
1276.86	10.3329
1277.14	12.5385
1277.41	3.18298
1277.69	13.7824
1277.96	10.7094
1278.23	7.67648
1278.51	1.44043
1278.78	12.0428
1279.06	2.57477
1279.33	9.93039
1279.61	9.90442
1279.88	14.1114
1280.15	12.054
1280.43	29.9816
1280.7	18.515
1280.98	22.861
1281.25	22.9373
1281.53	29.2589
1281.8	42.9926
1282.08	34.6437
1282.35	60.9251
1282.62	83.9224
1282.9	157.14
1283.17	201.078
1283.45	299.889
1283.72	418.807
1284	708.212
1284.27	980.272
1284.54	994.06
1284.82	716.427
1285.09	437.035
1285.37	235.95
1285.64	161.332
1285.91	84.4907
1286.19	65.4658
1286.46	67.5855
1286.74	47.5788
1287.01	47.5436
1287.28	43.2829
1287.56	33.784
1287.83	27.4818
1288.11	25.4056
1288.38	12.8168
1288.66	29.728
1288.93	24.5482
1289.2	17.2627
1289.48	22.6199
1289.75	19.545
1290.02	31.1592
1290.3	17.4425
1290.57	10.0662
1290.85	7.97217
1291.12	5.88068
1291.39	22.7387
1291.67	22.7558
1291.94	15.4249
1292.22	4.89893
1292.49	19.6297
1292.76	11.2361
1293.04	15.5698
1293.31	15.737
1293.59	18.013
1293.86	7.54742
1294.13	9.67142
1294.41	21.2715
1294.68	4.46265
1294.95	21.5023
1295.23	2.71158
1295.5	27.2634
1295.77	15.8285
1296.05	14.8364
1296.32	-2.0473
1296.6	10.6243
1296.87	7.41339
1297.14	18.9849
1297.42	3.07846
1297.69	12.5129
1297.96	8.32941
1298.24	8.33502
1298.51	13.576
1298.78	1.9321
1299.06	15.62
1299.33	13.5164
1299.6	12.5341
1299.88	12.5935
1300.15	8.40085
1300.43	13.6855
1300.7	22.1366
1300.97	19.0016
1301.25	13.796
1301.52	10.7021
1301.79	8.64111
1302.07	17.1225
1302.34	5.51846
1302.61	5.51678
1302.89	23.454
1303.16	11.7949
1303.43	9.68335
1303.71	10.7635
1303.98	12.8959
1304.25	5.51941
1304.53	7.61185
1304.8	-0.873413
1305.07	17.0126
1305.35	2.17929
1305.62	11.609
1305.89	10.5007
1306.17	2.04752
1306.44	17.8796
1306.71	8.43918
1306.98	10.5794
1307.26	6.37451
1307.53	4.27762
1307.8	19.0875
1308.08	9.58765
1308.35	15.9492
1308.62	14.969
1308.9	7.65134
1309.17	5.61121
1309.44	-3.8313
1309.71	7.78979
1309.99	9.89417
1310.26	5.68997
1310.53	7.83322
1310.81	15.2584
1311.08	3.68341
1311.35	4.78052
1311.63	8.02518
1311.9	18.6562
1312.17	4.97476
1312.45	7.09955
1312.72	7.06143
1312.99	4.95108
1313.26	13.3875
1313.54	12.3233
1313.81	22.8933
1314.08	21.8753
1314.36	11.3712
1314.63	11.4324
1314.9	0.933655
1315.17	15.7812
1315.45	7.39621
1315.72	16.9137
1315.99	12.6853
1316.26	11.632
1316.54	15.8645
1316.81	5.32098
1317.08	18.0568
1317.36	13.8871
1317.63	19.2112
1317.9	8.681
1318.17	25.6115
1318.45	22.463
1318.72	17.1903
1318.99	10.8566
1319.26	20.3692
1319.54	16.1824
1319.81	14.0952
1320.08	9.87204
1320.35	5.61905
1320.63	3.45233
1320.9	10.7668
1321.17	1.17401
1321.44	2.18811
1321.72	6.32748
1321.99	11.5714
1322.26	17.8692
1322.53	3.07651
1322.81	12.5028
1323.08	7.29309
1323.35	7.32745
1323.62	12.6268
1323.9	5.2504
1324.17	4.2236
1324.44	15.8232
1324.71	5.33322
1324.99	11.599
1325.26	6.19525
1325.53	15.5071
1325.8	19.4666
1326.08	9.9043
1326.35	8.82904
1326.62	14.2018
1326.89	22.8916
1327.16	4.07532
1327.44	22.1257
1327.71	-0.910431
1327.98	-1.81238
1328.25	10.9745
1328.53	15.2673
1328.8	3.61975
1329.07	4.73743
1329.34	8.96265
1329.61	20.5592
1329.89	9.98553
1330.16	14.1612
1330.43	8.82697
1330.7	11.9073
1330.98	25.4945
1331.25	4.28711
1331.52	9.4473
1331.79	11.4752
1332.06	9.28546
1332.33	18.654
1332.61	13.2869
1332.88	14.2418
1333.15	10.9998
1333.42	10.919
1333.69	7.68933
1333.97	10.7672
1334.24	10.6993
1334.51	15.891
1334.78	13.7427
1335.05	1.10489
1335.33	12.602
1335.6	10.4644
1335.87	24.0619
1336.14	7.25555
1336.41	-0.105774
1336.69	10.3626
1336.96	4.06216
1337.23	18.7179
1337.5	16.5622
1337.77	15.444
1338.04	9.12518
1338.32	-0.337189
1338.59	12.2048
1338.86	0.692596
1339.13	13.2854
1339.4	13.3237
1339.67	20.6813
1339.95	18.6163
1340.22	17.6002
1340.49	12.3777
1340.76	7.1445
1341.03	19.7055
1341.3	8.16849
1341.58	13.3682
1341.85	12.2674
1342.12	12.1956
1342.39	14.2141
1342.66	2.67096
1342.93	11.0292
1343.2	20.4461
1343.48	15.231
1343.75	1.65811
1344.02	2.7236
1344.29	12.1272
1344.56	-4.6387
1344.83	10.9887
1345.1	11.9472
1345.38	7.69421
1345.65	1.33475
1345.92	3.2807
1346.19	19.878
1346.46	11.444
1346.73	9.26877
1347	6.06146
1347.28	10.1824
1347.55	-0.26944
1347.82	5.97113
1348.09	16.3855
1348.36	15.3107
1348.63	23.5998
1348.9	18.3399
1349.18	22.458
1349.45	-9.86783
1349.72	15.0786
1349.99	12.9509
1350.26	13.9274
1350.53	11.7767
1350.8	11.7343
1351.07	2.3071
1351.34	11.6504
1351.62	3.34012
1351.89	17.9506
1352.16	-4.84354
1352.43	4.64038
1352.7	1.57849
1352.97	6.02499
1353.24	21.005
1353.51	9.28479
1353.78	24.3871
1354.06	18.7899
1354.33	7.4072
1354.6	11.6295
1354.87	13.6137
1355.14	17.693
1355.41	16.7733
1355.68	1.27252
1355.95	12.6353
1356.22	9.50223
1356.49	12.6058
1356.76	17.7834
1357.04	12.565
1357.3	5.26251
1357.58	-1.0058
1357.85	19.7095
1358.12	13.4402
1358.39	8.20349
1358.66	9.18939
1358.93	10.1935
1359.2	6.0192
1359.47	16.3268
1359.74	13.1285
1360.01	10.9778
1360.28	11.9599
1360.56	8.83847
1360.83	-2.54584
1361.1	14.035
1361.37	21.2831
1361.64	12.978
1361.91	22.2756
1362.18	20.1884
1362.45	15.0125
1362.72	11.9412
1362.99	5.79944
1363.26	10.0078
1363.53	14.21
1363.8	12.1617
1364.07	5.94159
1364.34	10.0685
1364.61	29.704
1364.89	15.1483
1365.16	13.0136
1365.43	8.81274
1365.7	13.9274
1365.97	11.7951
1366.24	4.47745
1366.51	12.651
1366.78	17.771
1367.05	6.38577
1367.32	7.46899
1367.59	8.55228
1367.86	12.7255
1368.13	18.9669
1368.4	28.3103
1368.67	7.67856
1368.94	21.1627
1369.21	56.3005
1369.48	40.7656
1369.75	43.8418
1370.02	38.6029
1370.29	29.2652
1370.56	5.45929
1370.83	22.9453
1371.1	15.6194
1371.37	16.5343
1371.64	5.06924
1371.91	14.2495
1372.18	7.98578
1372.45	4.84827
1372.72	11.0037
1372.99	7.88614
1373.26	19.2029
1373.54	-2.44839
1373.8	22.273
1374.07	27.4186
1374.34	10.9264
1374.61	18.111
1374.89	10.9249
1375.16	12.0154
1375.42	19.239
1375.69	15.1604
1375.96	32.6079
1376.24	18.1215
1376.51	14.94
1376.77	6.56628
1377.04	17.9325
1377.31	10.8272
1377.58	29.5104
1377.86	13.2167
1378.12	15.5043
1378.39	32.0891
1378.66	6.32462
1378.93	25.8846
1379.2	21.7307
1379.47	16.5299
1379.74	26.7276
1380.01	9.96439
1380.28	18.0592
1380.55	14.8212
1380.82	29.3197
1381.09	24.1149
1381.36	20.8865
1381.63	16.6154
1381.9	31.8869
1382.17	17.4036
1382.44	13.1746
1382.71	14.1249
1382.98	32.493
1383.25	29.372
1383.52	19.0741
1383.79	47.8092
1384.06	36.5747
1384.33	25.377
1384.6	40.8667
1384.87	63.6167
1385.14	78.1075
1385.41	87.4681
1385.68	97.7997
1385.95	116.4
1386.21	153.442
1386.48	233.583
1386.76	368.817
1387.03	681.005
1387.29	1301.16
1387.56	1809.61
1387.83	1999.07
1388.1	1232.33
1388.37	542.815
1388.64	257.09
1388.91	192.435
1389.18	127.854
1389.45	113.373
1389.72	54.5959
1389.99	55.4145
1390.26	57.5312
1390.53	19.4401
1390.8	46.0649
1391.06	41.9601
1391.33	36.7737
1391.6	29.5251
1391.87	25.363
1392.14	28.39
1392.41	34.4995
1392.68	25.2615
1392.95	26.2664
1393.22	27.2742
1393.49	33.4025
1393.76	17.0212
1394.03	9.85458
1394.3	35.4368
1394.56	23.2021
1394.83	18.1653
1395.1	27.4389
1395.37	31.5738
1395.64	11.1113
1395.91	-0.156403
1396.18	20.2924
1396.45	23.3351
1396.72	25.3376
1396.99	13.012
1397.26	17.0835
1397.52	31.4127
1397.79	6.90189
1398.06	20.2561
1398.33	4.95566
1398.6	16.2464
1398.87	15.2932
1399.14	4.09531
1399.41	16.4279
1399.68	3.14249
1399.95	10.3645
1400.22	9.43893
1400.48	16.6724
1400.75	7.46973
1401.02	26.978
1401.29	20.8558
1401.56	12.7787
1401.83	4.7782
1402.1	18.3331
1402.37	24.6714
1402.63	23.7827
1402.9	4.35904
1403.17	22.8684
1403.44	27.9601
1403.71	19.5747
1403.98	13.4633
1404.25	27.8239
1404.51	18.5695
1404.78	21.6053
1405.05	22.5836
1405.32	28.6907
1405.59	33.7746
1405.86	14.2771
1406.13	23.4872
1406.39	19.418
1406.66	22.5352
1406.93	29.7607
1407.2	26.7251
1407.47	41.1185
1407.74	42.1832
1408.01	53.5018
1408.27	67.9038
1408.54	77.1891
1408.81	113.139
1409.08	129.606
1409.35	107.084
1409.62	86.6019
1409.89	58.8503
1410.15	46.4614
1410.42	40.2079
1410.69	48.3351
1410.96	33.9413
1411.23	5.22147
1411.5	12.3889
1411.76	21.6697
1412.03	4.35599
1412.3	29.1477
1412.57	19.3467
1412.84	27.8741
1413.11	12.2931
1413.37	10.7339
1413.64	17.9742
1413.91	17.1952
1414.18	22.5548
1414.45	14.328
1414.72	14.3615
1414.98	22.5945
1415.25	13.3795
1415.52	22.6666
1415.79	12.4483
1416.06	16.608
1416.33	22.8245
1416.59	8.50369
1416.86	21.9181
1417.13	10.6745
1417.4	22.0187
1417.67	9.71368
1417.93	10.7702
1418.2	21.0879
1418.47	9.80124
1418.74	2.64014
1419.01	22.1536
1419.27	9.78006
1419.54	12.8105
1419.81	13.7935
1420.08	8.6091
1420.35	-5.81906
1420.61	15.6929
1420.88	21.8302
1421.15	16.729
1421.42	17.8508
1421.69	15.9429
1421.95	14.0097
1422.22	7.00986
1422.49	26.833
1422.76	15.8701
1423.02	26.733
1423.29	31.7498
1423.56	11.4942
1423.83	1.96695
1424.1	11.1
1424.36	29.7383
1424.63	7.3306
1424.9	15.7621
1425.17	9.46021
1425.43	8.62094
1425.7	14.7695
1425.97	9.60989
1426.24	14.6672
1426.51	15.6193
1426.77	15.5375
1427.04	20.5495
1427.31	6.10004
1427.58	17.3231
1427.84	18.3376
1428.11	14.262
1428.38	11.2273
1428.65	14.3452
1428.91	4.15952
1429.18	8.3251
1429.45	11.4855
1429.72	7.49365
1429.98	22.9649
1430.25	6.67334
1430.52	19.1434
1430.79	17.2406
1431.05	17.3275
1431.32	-1.1174
1431.59	16.298
1431.86	14.1823
1432.12	13.1167
1432.39	18.1754
1432.66	13.9623
1432.93	24.088
1433.19	26.0128
1433.46	9.54822
1433.73	8.50143
1434	8.6348
1434.26	3.63556
1434.53	38.5092
1434.8	13.9391
1435.07	17.0257
1435.33	14.9801
1435.6	8.83035
1435.87	13.9488
1436.13	0.619141
1436.4	12.8982
1436.67	6.74081
1436.94	6.74606
1437.2	15.9519
1437.47	5.7059
1437.74	8.80804
1438	20.1404
1438.27	7.90247
1438.54	6.91034
1438.81	16.166
1439.07	13.1578
1439.34	15.2997
1439.61	10.2855
1439.87	12.4063
1440.14	15.5257
1440.41	9.3996
1440.67	8.40924
1440.94	14.5628
1441.21	9.40268
1441.48	16.5623
1441.74	9.45932
1442.01	4.36734
1442.28	6.49808
1442.54	6.4902
1442.81	6.45349
1443.08	14.6241
1443.34	3.32898
1443.61	18.7073
1443.88	18.7385
1444.15	19.8738
1444.41	11.7708
1444.68	11.9048
1444.95	0.623718
1445.21	7.79248
1445.48	2.65302
1445.75	-6.58826
1446.01	15.9701
1446.28	21.0897
1446.55	2.62231
1446.81	-3.54349
1447.08	10.7877
1447.35	-4.60944
1447.61	6.67392
1447.88	14.9458
1448.15	3.76727
1448.41	23.2993
1448.68	7.93237
1448.95	17.1557
1449.21	7.90244
1449.48	5.81622
1449.75	22.1772
1450.01	11.9142
1450.28	16.0059
1450.55	2.6731
1450.81	18.0366
1451.08	10.847
1451.35	19.0282
1451.61	12.8708
1451.88	21.0666
1452.15	9.8187
1452.41	-2.44659
1452.68	11.9539
1452.94	-10.5365
1453.21	5.88724
1453.48	8.95645
1453.75	3.82855
1454.01	11.0187
1454.28	19.2364
1454.54	5.927
1454.81	11.0441
1455.08	13.105
1455.34	17.2847
1455.61	7.09235
1455.88	9.16397
1456.14	-0.0639648
1456.41	-1.12424
1456.68	27.5224
1456.94	25.464
1457.21	13.1658
1457.47	5.99521
1457.74	2.94165
1458.01	17.3063
1458.27	20.4171
1458.54	15.3308
1458.8	18.433
1459.07	8.21674
1459.34	9.24854
1459.6	2.07355
1459.87	23.5816
1460.13	4.10855
1460.4	15.3598
1460.67	12.2604
1460.93	8.13876
1461.2	21.4205
1461.47	13.1909
1461.73	12.1245
1462	6.95804
1462.26	12.0205
1462.53	14.0069
1462.79	13.9436
1463.06	5.7049
1463.33	7.73679
1463.59	12.9483
1463.86	5.97083
1464.13	-2.0799
1464.39	12.4072
1464.66	18.5016
1464.92	13.717
1465.19	13.4259
1465.45	20.4917
1465.72	11.4447
1465.99	10.4452
1466.25	-4.98581
1466.52	8.20871
1466.78	10.316
1467.05	-1.9288
1467.32	6.22565
1467.58	12.3461
1467.85	15.417
1468.11	4.20721
1468.38	5.2287
1468.64	3.17508
1468.91	1.11362
1469.18	15.35
1469.44	5.09189
1469.71	15.2339
1469.97	9.0878
1470.24	1.93314
1470.51	1.92166
1470.77	15.1475
1471.04	4.91089
1471.3	9.96985
1471.57	13.0143
1471.83	18.1087
1472.1	18.116
1472.36	7.94119
1472.63	2.84668
1472.9	23.1805
1473.16	10.9287
1473.43	6.83292
1473.69	6.82196
1473.96	-1.30753
1474.22	3.82071
1474.49	8.95477
1474.75	18.1381
1475.02	18.1478
1475.28	2.87158
1475.55	7.9346
1475.82	14.0194
1476.08	5.86887
1476.35	5.83899
1476.61	3.7648
1476.88	4.7652
1477.14	-1.33295
1477.41	14.9465
1477.67	6.79764
1477.94	2.68658
1478.2	3.66772
1478.47	10.751
1478.73	18.8418
1479	-5.58945
1479.27	16.7079
1479.53	11.5743
1479.79	0.313141
1480.06	3.27603
1480.32	9.31091
1480.59	-7.95877
1480.85	-0.889435
1481.12	3.19821
1481.39	11.3807
1481.65	7.3978
1481.92	10.5266
1482.18	0.446594
1482.45	19.7624
1482.71	0.520874
1482.98	2.59351
1483.24	11.7544
1483.51	4.65433
1483.77	3.54565
1484.04	8.46439
1484.3	1.06339
1484.57	5.71185
1484.83	3.49973
1485.1	13.3573
1485.36	10.9702
1485.63	18.2806
1485.89	6.27853
1486.16	18.1496
1486.42	5.09369
1486.69	4.17255
1486.95	9.17725
1487.22	15.1898
1487.48	20.2188
1487.75	6.00516
1488.01	2.91516
1488.28	22.0833
1488.54	-2.25629
1488.81	9.86301
1489.07	3.77905
1489.34	18.9456
1489.6	9.85208
1489.86	15.9372
1490.13	3.78009
1490.39	8.79089
1490.66	4.6936
1490.92	16.8065
1491.19	19.8377
1491.45	10.7502
1491.72	22.9157
1491.98	4.72534
1492.25	3.71329
1492.51	9.78162
1492.78	2.72369
1493.04	7.77151
1493.3	0.696472
1493.57	13.8543
1493.83	2.76987
1494.1	2.81982
1494.36	6.87466
1494.63	6.84686
1494.89	-3.33279
1495.16	3.63721
1495.42	5.57181
1495.69	16.6308
1495.95	10.5408
1496.22	7.49057
1496.48	14.5172
1496.74	8.47311
1497.01	10.5095
1497.27	1.42142
1497.54	2.43683
1497.8	5.4826
1498.07	5.50497
1498.33	7.55038
1498.59	20.7004
1498.86	9.63416
1499.12	9.67935
1499.39	5.6889
1499.65	10.7679
1499.92	10.7842
1500.18	7.75916
1500.44	12.8155
1500.71	-3.34433
1500.97	11.7382
1501.24	4.66629
1501.5	9.7186
1501.77	9.72324
1502.03	11.7352
1502.29	11.6833
1502.56	-4.5163
1502.82	1.52423
1503.09	-2.56348
1503.35	-5.58414
1503.62	6.56653
1503.88	14.6671
1504.14	8.63837
1504.41	-0.43222
1504.67	-1.45511
1504.93	2.54871
1505.2	9.54727
1505.46	13.4493
1505.73	20.4903
1505.99	9.41483
1506.26	3.38397
1506.52	8.49713
1506.78	16.5853
1507.05	3.51913
1507.31	3.53735
1507.58	12.6018
1507.84	-3.52789
1508.1	10.5979
1508.37	11.6352
1508.63	7.62762
1508.89	6.63287
1509.16	14.7037
1509.42	17.7675
1509.69	6.74857
1509.95	17.7842
1510.21	13.7081
1510.48	-6.49811
1510.74	8.54071
1511.01	6.42203
1511.27	10.292
1511.53	7.11282
1511.8	8.9798
1512.06	4.8208
1512.32	10.7753
1512.59	8.70477
1512.85	8.65332
1513.12	5.61789
1513.38	10.6977
1513.64	5.83893
1513.91	4.90378
1514.17	1.87445
1514.43	4.83951
1514.7	0.745117
1514.96	7.71103
1515.22	3.61356
1515.49	5.53677
1515.75	18.5097
1516.02	4.45032
1516.28	0.42923
1516.54	8.44287
1516.81	11.4545
1517.07	14.481
1517.33	6.49503
1517.6	1.55109
1517.86	8.61417
1518.12	-1.37799
1518.39	6.6824
1518.65	6.72498
1518.91	2.75461
1519.18	11.818
1519.44	22.8676
1519.7	1.78955
1519.97	11.8124
1520.23	-6.2186
1520.49	6.8685
1520.76	2.90112
1521.02	7.94934
1521.28	-1.07349
1521.55	10.9565
1521.81	11.9398
1522.07	-7.14224
1522.34	8.88721
1522.6	3.83853
1522.86	10.7835
1523.13	6.66504
1523.39	12.5964
1523.65	14.5409
1523.92	5.48196
1524.18	16.4594
1524.44	14.4918
1524.71	17.5326
1524.97	8.54803
1525.23	-0.410339
1525.5	6.67551
1525.76	16.7938
1526.02	1.84995
1526.28	12.9262
1526.55	12.942
1526.81	18.9305
1527.07	5.89111
1527.34	6.88239
1527.6	15.8896
1527.86	13.8633
1528.13	11.8387
1528.39	-2.20139
1528.65	3.80542
1528.91	7.82047
1529.18	10.8232
1529.44	13.7939
1529.7	6.77618
1529.97	0.804138
1530.23	11.8974
1530.49	-1.04224
1530.76	10.0497
1531.02	6.07321
1531.28	18.0938
1531.54	10.1012
1531.81	10.076
1532.07	3.10117
1532.33	11.2114
1532.59	13.3474
1532.86	10.4656
1533.12	6.52493
1533.38	3.56296
1533.65	6.59048
1533.91	11.6061
1534.17	2.57028
1534.43	11.5785
1534.7	15.5771
1534.96	5.51624
1535.22	4.37476
1535.48	10.291
1535.75	14.2401
1536.01	7.1358
1536.27	1.02423
1536.54	3.92618
1536.8	-2.1087
1537.06	7.82834
1537.32	0.844727
1537.59	2.80759
1537.85	7.71579
1538.11	14.6898
1538.37	25.6529
1538.63	10.7408
1538.9	-0.0743408
1539.16	11.1895
1539.42	2.37186
1539.69	13.5449
1539.95	9.70493
1540.21	5.80731
1540.47	21.9415
1540.74	18.8001
1541	13.7895
1541.26	6.70316
1541.52	8.64059
1541.79	12.5794
1542.05	14.5141
1542.31	4.43808
1542.57	10.387
1542.83	-0.68335
1543.1	13.2418
1543.36	9.11868
1543.62	5.14191
1543.88	13.1691
1544.14	3.24042
1544.41	-2.64258
1544.67	9.43918
1544.93	2.58621
1545.19	-6.33237
1545.46	2.73737
1545.72	-4.20895
1545.98	6.80115
1546.24	-2.18961
1546.51	0.867188
1546.77	13.9423
1547.03	6.9971
1547.29	25.016
1547.55	8.7821
1547.82	9.80475
1548.08	-0.224304
1548.34	7.9989
1548.6	4.73608
1548.86	13.3611
1549.13	11.2344
1549.39	9.40796
1549.65	10.707
1549.91	3.25769
1550.17	8.59763
1550.44	7.10962
1550.7	16.8647
1550.96	16.9322
1551.22	11.8928
1551.48	11.735
1551.74	4.85486
1552.01	7.06775
1552.27	10.0477
1552.53	10.0318
1552.79	14.7684
1553.05	6.69409
1553.32	4.68484
1553.58	8.65305
1553.84	5.56833
1554.1	10.4958
1554.36	24.3987
1554.63	15.3492
1554.89	13.3344
1555.15	-1.68378
1555.41	14.3759
1555.67	16.4217
1555.93	-2.66129
1556.2	10.3736
1556.46	5.40155
1556.72	9.44455
1556.98	8.46915
1557.24	9.47324
1557.5	3.43719
1557.77	20.36
1558.03	15.296
1558.29	4.18683
1558.55	15.1044
1558.81	4.02466
1559.07	16.9644
1559.33	-2.0777
1559.6	7.88513
1559.86	2.86569
1560.12	4.85303
1560.38	18.8352
1560.64	-0.144043
1560.9	10.8759
1561.17	12.9457
1561.43	11.0407
1561.69	15.1733
1561.95	15.2023
1562.21	5.20395
1562.47	19.1899
1562.74	5.21869
1563	-6.79141
1563.26	8.18976
1563.52	22.2999
1563.78	2.44312
1564.04	26.533
1564.3	14.5363
1564.56	-4.58084
1564.82	21.9281
1565.09	7.17352
1565.35	12.5044
1565.61	7.73563
1565.87	6.33679
1566.13	9.27267
1566.39	5.02975
1566.65	12.2322
1566.91	12.5781
1567.18	19.5906
1567.44	15.3584
1567.7	7.37833
1567.96	23.4375
1568.22	1.48553
1568.48	0.487518
1568.74	18.3829
1569	12.314
1569.27	14.3172
1569.53	4.36398
1569.79	15.3819
1570.05	3.41003
1570.31	15.4132
1570.57	5.42166
1570.83	12.4062
1571.09	11.3741
1571.35	6.32932
1571.62	9.32751
1571.88	10.3066
1572.14	10.2576
1572.4	6.22763
1572.66	0.206787
1572.92	4.16196
1573.18	9.11365
1573.44	28.0841
1573.7	7.19144
1573.96	10.274
1574.22	11.3649
1574.48	11.4629
1574.74	8.56146
1575.01	20.6357
1575.27	5.6871
1575.53	3.68051
1575.79	7.68723
1576.05	-0.316986
1576.31	0.606537
1576.57	5.4931
1576.83	19.3641
1577.09	0.298737
1577.35	5.19824
1577.61	15.0831
1577.87	9.04333
1578.14	12.022
1578.4	10.0374
1578.66	13.039
1578.92	9.06644
1579.18	12.0834
1579.44	1.17847
1579.7	18.1729
1579.96	14.2091
1580.22	10.2263
1580.48	10.2077
1580.74	14.1571
1581	14.1301
1581.26	7.10526
1581.52	18.9992
1581.78	16.9908
1582.04	13.9932
1582.3	9.99594
1582.57	14.9695
1582.83	-0.965637
1583.09	2.03357
1583.35	0.0209656
1583.61	-1.96561
1583.87	9.0307
1584.13	9.06839
1584.39	5.11444
1584.65	14.0953
1584.91	14.0895
1585.17	21.0695
1585.43	5.12573
1585.69	12.0401
1585.95	9.97818
1586.21	3.95697
1586.47	3.92532
1586.73	10.8687
1586.99	14.8319
1587.25	15.8206
1587.51	14.836
1587.77	21.8382
1588.03	12.9319
1588.29	12.0005
1588.55	15.041
1588.81	4.1488
1589.07	-0.781219
1589.33	6.21838
1589.59	17.1789
1589.85	3.27567
1590.11	14.2797
1590.37	4.37589
1590.63	7.36783
1590.89	14.3546
1591.15	14.3482
1591.41	11.3484
1591.67	4.32999
1591.94	12.2019
1592.2	14.1164
1592.46	9.11981
1592.72	-3.9097
1592.98	9.90152
1593.23	2.8143
1593.49	11.6761
1593.75	10.6408
1594.01	10.6448
1594.27	16.647
1594.53	1.82993
1594.79	24.7407
1595.05	14.8676
1595.31	14.7026
1595.57	7.74753
1595.83	10.7397
1596.09	17.7068
1596.35	-1.14139
1596.61	4.853
1596.87	14.8268
1597.13	11.897
1597.39	30.7855
1597.65	11.897
1597.91	14.8409
1598.17	15.7575
1598.43	5.75751
1598.69	7.694
1598.95	-7.2337
1599.21	12.5721
1599.47	16.4171
1599.73	6.34308
1599.99	8.49844
1600.25	7.91183
1600.51	16.6308
1600.77	5.9502
1601.03	2.16275
1601.29	20.2449
1601.55	10.5882
1601.81	4.3501
1602.07	16.2309
1602.33	9.30261
1602.59	-0.7388
1602.85	12.1101
1603.1	13.6978
1603.36	6.78174
1603.62	17.7676
1603.88	2.29272
1604.14	13.6801
1604.4	9.34064
1604.66	4.38724
1604.92	6.12585
1605.18	1.0036
1605.44	6.81497
1605.7	7.84421
1605.96	15.5059
1606.22	7.4072
1606.48	11.1008
1606.74	7.11786
1607	3.32013
1607.26	12.3368
1607.52	9.56592
1607.77	0.868073
1608.03	12.5712
1608.29	2.9617
1608.55	12.9629
1608.81	10.8326
1609.07	10.8529
1609.33	6.58145
1609.59	-1.51816
1609.85	-2.27328
1610.11	2.05344
1610.37	14.9045
1610.63	0.590088
1610.88	9.84198
1611.14	-1.42307
1611.4	7.52707
1611.66	12.5766
1611.92	7.86435
1612.18	3.03625
1612.44	-0.735931
1612.7	4.96957
1612.96	4.96307
1613.22	-0.926636
1613.48	9.14413
1613.73	12.2061
1613.99	15.7552
1614.25	7.72208
1614.51	10.3906
1614.77	9.76407
1615.03	5.49933
1615.29	10.0616
1615.55	-2.63116
1615.81	6.56433
1616.07	9.60229
1616.32	10.1695
1616.58	3.61209
1616.84	-0.967865
1617.1	0.949402
1617.36	2.06354
1617.62	6.56927
1617.88	4.41602
1618.14	5.68039
1618.4	7.40082
1618.65	4.77756
1618.91	1.31912
1619.17	1.54166
1619.43	10.5905
1619.69	-2.33942
1619.95	4.16089
1620.21	5.78537
1620.47	-2.5578
1620.72	4.27148
1620.98	7.33844
1621.24	2.8916
1621.5	-2.55356
1621.76	3.75433
1622.02	9.79849
1622.28	-0.99231
1622.54	-2.64429
1622.79	1.78311
1623.05	3.44232
1623.31	2.42154
1623.57	0.160004
1623.83	2.00223
1624.09	-0.26474
1624.35	-3.05826
1624.6	3.00168
1624.86	3.11795
1625.12	-1.21393
1625.38	-4.36594
1625.64	-9.26886
1625.9	-0.928711
1626.16	3.52124
1626.41	5.28467
1626.67	2.02798
1626.77	-1.09402
1627.04	-3.05099
1627.3	-5.98938
1627.56	-1.03958
1627.82	-6.92413
1628.08	0.990631
1628.34	2.00873
1628.6	-4.9003
1628.87	-1.96884
1629.13	0.975037
1629.39	12.7921
1629.65	-2.9722
1629.91	0.96463
1630.17	-4.96106
1630.44	0.929199
1630.7	-3.97351
1630.96	-1.95563
1631.22	3.04221
1631.48	5.08786
1631.74	0.197693
1632	-0.746338
1632.27	-0.598755
1632.53	3.39627
1632.79	-0.690826
1633.05	10.0583
1633.31	4.17053
1633.57	1.28043
1633.83	8.22891
1634.1	4.31323
1634.36	-4.54163
1634.62	3.34958
1634.88	-4.53717
1635.14	1.36786
1635.4	-2.58951
1635.66	-2.61124
1635.92	2.28973
1636.18	6.2023
1636.45	-4.6665
1636.71	-10.6176
1636.97	-5.72211
1637.23	2.15207
1637.49	6.08298
1637.75	-3.77972
1638.01	3.09442
1638.27	7.03937
1638.53	-5.74002
1638.8	-1.78995
1639.06	4.12823
1639.32	-6.68787
1639.58	-7.66788
1639.84	-0.771973
1640.1	-4.64795
1640.36	0.343658
1640.62	1.37225
1640.88	5.31781
1641.15	-5.53381
1641.41	-7.51517
1641.67	5.27737
1641.93	-8.50397
1642.19	-2.59863
1642.45	-2.59567
1642.71	14.1399
1642.97	5.29456
1643.23	1.3512
1643.49	4.28616
1643.75	-3.6113
1644.02	5.19382
1644.28	-7.59607
1644.54	5.19839
1644.8	-2.59415
1645.06	4.32596
1645.32	-5.46777
1645.58	-2.52646
1645.84	3.35254
1646.1	2.34488
1646.36	-0.622284
1646.62	-3.57401
1646.88	10.1622
1647.15	-0.667511
1647.41	14.0685
1647.67	14.0956
1647.93	6.27844
1648.19	7.33545
1648.45	3.49591
1648.71	7.65866
1648.97	8.6004
1649.23	6.62372
1649.49	1.67691
1649.75	-1.22031
1650.01	-4.03583
1650.27	5.87363
1650.53	-3.89432
1650.79	8.98233
1651.05	10.998
1651.31	11.0204
1651.57	-0.792267
1651.83	9.08203
1652.1	4.17099
1652.36	15.9607
1652.62	-4.74567
1652.88	2.15814
1653.14	14.9897
1653.4	5.17487
1653.66	-2.66287
1653.92	-2.63367
1654.18	5.28098
1654.44	-0.586945
1654.7	-5.44897
1654.96	6.47574
1655.22	-5.23914
1655.48	7.70322
1655.74	-4.06223
1656	2.89999
1656.26	8.85806
1656.52	4.92746
1656.78	-4.94858
1657.04	0.955414
1657.3	4.88791
1657.56	0.932434
1657.82	-1.05649
1658.08	-0.0961914
1658.34	3.8172
1658.6	8.71469
1658.86	-6.11313
1659.12	-9.10403
1659.38	20.4268
1659.64	2.67484
1659.9	3.70923
1660.16	1.79752
1660.42	6.79703
1660.69	17.7219
1660.95	11.8857
1661.21	5.03671
1661.46	12.9985
1661.72	2.92447
1661.98	-0.777679
1662.25	0.724792
1662.51	0.765259
1662.77	6.60278
1663.03	-3.24005
1663.28	0.164368
1663.54	0.156708
1663.8	20.1067
1664.07	3.36545
1664.33	0.532196
1664.59	1.68893
1664.84	-3.36053
1665.1	5.90771
1665.36	7.5293
1665.62	10.883
1665.89	-1.02792
1666.14	3.06195
1666.4	3.47571
1666.66	-2.69537
1666.92	10.3622
1667.18	4.3811
1667.44	4.3689
1667.7	-0.609314
1667.96	0.354279
1668.22	1.41745
1668.48	9.56885
1668.74	-0.212738
1669	9.68823
1669.26	8.72522
1669.52	-9.02844
1669.78	7.68909
1670.04	7.81433
1670.3	4.09442
1670.56	3.10303
1670.82	3.07919
1671.08	5.0567
1671.34	10.984
1671.6	8.07764
1671.86	6.12741
1672.12	0.218384
1672.38	13.0725
1672.64	7.16187
1672.9	-0.721069
1673.15	4.25171
1673.41	2.31619
1673.67	-6.52994
1673.93	8.36359
1674.19	2.48004
1674.45	-0.424652
1674.71	6.58084
1674.97	6.6308
1675.23	4.68451
1675.49	3.70309
1675.75	4.70541
1676.01	5.72699
1676.27	10.7036
1676.53	3.79202
1676.79	2.80377
1677.05	8.73111
1677.31	5.73871
1677.57	3.71838
1677.82	9.59854
1678.08	13.4993
1678.34	9.50433
1678.6	3.54352
1678.86	9.45367
1679.12	-0.446136
1679.38	11.3938
1679.64	7.42361
1679.9	0.492004
1680.16	0.471191
1680.42	3.41785
1680.68	-3.50763
1680.94	8.35028
1681.19	-4.4834
1681.45	8.37094
1681.71	7.39746
1681.97	4.45175
1682.23	5.45071
1682.49	8.41531
1682.75	3.4823
1683.01	10.4083
1683.27	5.47757
1683.53	-9.34128
1683.79	-8.37411
1684.04	-0.49762
1684.3	18.2566
1684.56	-1.49463
1684.82	4.43475
1685.08	15.3058
1685.34	-5.41736
1685.6	-2.43777
1685.86	8.45273
1686.12	5.55347
1686.38	4.629
1686.63	11.579
1686.89	7.63089
1687.15	0.697083
1687.41	12.5242
1687.67	6.57791
1687.93	8.53299
1688.19	7.5192
1688.45	5.49423
1688.71	8.40768
1688.96	-7.42462
1689.22	1.41135
1689.48	11.2177
1689.74	1.29996
1690	0.384949
1690.26	-0.539795
1690.52	16.2808
1690.78	8.42401
1691.03	12.398
1691.29	-2.3428
1691.55	6.56372
1691.81	3.60657
1692.07	-3.31705
1692.33	2.55579
1692.59	10.3964
1692.84	11.3126
1693.1	-2.57269
1693.36	5.23462
1693.62	2.23956
1693.88	0.211639
1694.14	-1.80676
1694.4	0.146271
1694.66	9.0368
1694.91	0.205109
1695.17	7.13068
1695.43	6.17896
1695.69	8.19223
1695.95	-7.51642
1696.21	4.33694
1696.47	5.31821
1696.72	7.2572
1696.98	10.1524
1697.24	14.016
1697.5	10.0085
1697.76	3.06757
1698.02	7.94775
1698.27	-2.91519
1698.53	10.839
1698.79	-5.89154
1699.05	1.01166
1699.31	1.03845
1699.57	16.7976
1699.82	7.93286
1700.08	-0.954987
1700.34	10.8523
1700.6	1.01053
1700.86	11.8206
1701.12	8.84189
1701.37	6.82797
1701.63	14.6435
1701.89	8.69534
1702.15	9.62799
1702.41	1.73776
1702.66	4.6843
1702.92	-4.16129
1703.18	14.4938
1703.44	6.61972
1703.7	3.68863
1703.96	9.63333
1704.21	-4.08328
1704.47	8.70123
1704.73	0.83371
1704.99	-0.146637
1705.25	4.78116
1705.5	-10.9517
1705.76	3.73853
1706.02	-7.12451
1706.28	-1.2966
1706.54	12.3779
1706.79	-0.44278
1707.05	-3.45035
1707.31	3.33496
1707.57	5.20642
1707.83	-0.763763
1708.08	5.01718
1708.34	5.89459
1708.6	7.77563
1708.86	1.85034
1709.12	17.491
1709.37	4.76221
1709.63	-5.0137
1709.89	0.879395
1710.15	6.77917
1710.41	14.6701
1710.66	9.82437
1710.92	3.99014
1711.18	5.98914
1711.44	2.1026
1711.7	-7.6918
1711.95	-0.880798
1712.21	8.80261
1712.47	1.83057
1712.73	1.69684
1712.98	-10.1263
1713.24	-0.479126
1713.5	-0.548157
1713.76	10.1633
1714.01	8.18365
1714.27	-6.47882
1714.53	1.33148
1714.79	-14.2797
1715.04	1.46609
1715.3	15.1789
1715.56	12.2429
1715.82	-0.481079
1716.08	2.40521
1716.33	0.385773
1716.59	2.25043
1716.85	0.188416
1717.11	3.95526
1717.36	-1.07556
1717.62	3.69461
1717.88	4.55063
1718.14	-8.18396
1718.39	3.45657
1718.65	-5.31876
1718.91	-3.35303
1719.16	1.51508
1719.42	7.35068
1719.68	2.54303
1719.94	21.0404
1720.2	-3.33429
1720.45	6.34241
1720.71	8.20587
1720.97	9.13562
1721.23	1.29352
1721.48	7.06503
1721.74	-5.64471
1722	1.0899
1722.25	3.93765
1722.51	13.5908
1722.77	7.70929
1723.03	3.78873
1723.28	8.63101
1723.54	13.4947
1723.8	-9.82874
1724.05	11.5203
1724.31	1.75406
1724.57	3.60538
1724.83	-1.36169
1725.08	3.38727
1725.34	-12.2188
1725.6	5.18079
1725.85	3.24152
1726.11	-5.45557
1726.37	10.0218
1726.63	-1.66684
1726.88	11.8252
1727.14	-0.720093
1727.4	2.24149
1727.66	12.8677
1727.91	-0.76239
1728.17	-8.7457
1728.43	4.33344
1728.68	-4.70657
1728.94	-4.70975
1729.2	1.27545
1729.45	0.469086
1729.71	-9.19458
1729.97	0.326569
1730.23	-1.65591
1730.48	11.0598
1730.74	3.55206
1730.99	7.44528
1731.25	9.38983
1731.51	6.48999
1731.77	-7.05319
1732.02	5.48914
1732.28	-5.16745
1732.54	4.44946
1732.79	4.37967
1733.05	2.349
1733.31	-5.49777
1733.56	2.1225
1733.82	8.78616
1734.08	1.94617
1734.33	0.889893
1734.59	5.61639
1734.85	6.48962
1735.1	-4.1683
1735.36	-1.32877
1735.62	3.45932
1735.87	5.36734
1736.13	-2.35989
1736.39	7.23282
1736.65	-0.498383
1736.9	11.0098
1737.16	-10.1779
1737.41	-2.51712
1737.67	6.08481
1737.93	-1.66318
1738.18	-4.5997
1738.44	-3.69525
1738.7	3.92047
1738.95	0.950409
1739.21	9.46378
1739.47	12.2066
1739.72	8.24875
1739.98	-0.485046
1740.24	-1.51993
1740.49	5.12952
1740.75	-2.59772
1741.01	10.7569
1741.26	-10.365
1741.52	-0.820282
1741.78	-1.79187
1742.03	0.12146
1742.29	-10.4332
1742.54	-8.53641
1742.8	2.94958
1743.06	5.82608
1743.31	-1.8703
1743.57	0.937317
1743.83	3.77795
1744.08	-2.95691
1744.34	7.57327
1744.6	8.54251
1744.85	-2.91672
1745.11	2.82794
1745.36	0.900848
1745.62	-2.00739
1745.88	9.40469
1746.13	2.63348
1746.39	14.0155
1746.65	2.49429
1746.9	-3.32361
1747.16	-0.508667
1747.41	6.11304
1747.67	5.15436
1747.93	-0.563202
1748.18	-6.27106
1748.44	4.25784
1748.69	6.2059
1748.95	6.26205
1749.21	-1.30887
1749.46	-1.23044
1749.72	-0.18985
1749.97	-10.6184
1750.23	-3.86298
1750.49	-3.83035
1750.74	3.86115
1751	-11.435
1751.26	-3.83774
1751.51	2.76566
1751.77	-11.6407
1752.02	5.49539
1752.28	16.8945
1752.54	7.284
1752.79	-0.407928
1753.05	-1.40747
1753.3	-1.44852
1753.56	-7.21802
1753.82	-2.50809
1754.07	-2.55814
1754.33	3.12799
1754.58	-13.1072
1754.84	8.79016
1755.09	-6.4928
1755.35	-2.72861
1755.6	2.92715
1755.86	-0.000427246
1756.12	1.82306
1756.37	-3.02679
1756.63	3.54785
1756.88	-3.16901
1757.14	2.5105
1757.4	-1.29718
1757.65	-0.281158
1757.91	2.65073
1758.16	6.48856
1758.42	7.45752
1758.67	-4.89758
1758.93	2.73727
1759.18	7.51407
1759.44	-6.76227
1759.7	6.54568
1759.95	-18.2089
1760.21	7.45804
1760.46	2.6698
1760.72	-3.08301
1760.97	3.5239
1761.23	-5.07095
1761.49	-3.18906
1761.74	2.50021
1762	2.53473
1762.25	5.44592
1762.51	-3.07608
1762.76	-2.12039
1763.02	-0.209869
1763.27	3.62073
1763.53	9.36581
1763.78	-5.80103
1764.04	-5.68518
1764.3	13.4396
1764.55	-2.6796
1764.81	-3.5842
1765.06	4.06943
1765.32	2.19489
1765.57	18.3984
1765.83	3.17377
1766.08	6.0242
1766.34	-7.32227
1766.59	12.6728
1766.85	-4.46515
1767.1	-6.38858
1767.36	7.84421
1767.61	-6.45203
1767.87	0.171753
1768.13	-4.57083
1768.38	-4.62744
1768.64	-10.4893
1768.89	0.772308
1769.15	-2.2431
1769.4	-5.11383
1769.66	-1.28348
1769.91	-6.85147
1770.17	-6.81717
1770.42	0.803894
1770.68	-2.00055
1770.93	4.79037
1771.19	-0.809631
1771.44	8.71802
1771.7	-1.69836
1771.95	2.17886
1772.21	8.9129
1772.46	2.30759
1772.72	0.453308
1772.97	3.35574
1773.23	-3.26328
1773.48	3.43973
1773.74	-0.334015
1773.99	-3.16248
1774.25	-0.271759
1774.5	3.59259
1774.76	-3.98413
1775.01	2.78207
1775.27	1.97766
1775.52	-0.810272
1775.78	8.76328
1776.03	-7.43146
1776.29	14.4803
1776.54	7.77084
1776.8	-5.60944
1777.05	-4.68457
1777.31	8.60678
1777.56	7.60709
1777.82	4.702
1778.07	-4.86951
1778.32	9.34842
1778.58	0.705627
1778.83	-1.26086
1779.09	-6.039
1779.34	5.42163
1779.6	-4.9668
1779.85	-4.93457
1780.11	15.0898
1780.36	-10.5693
1780.62	1.83887
1780.87	-4.80453
1781.13	-2.86978
1781.38	-6.63281
1781.64	11.5189
1781.89	9.68875
1782.15	2.14392
1782.4	11.7278
1782.65	-8.23566
1782.91	1.34323
1783.16	5.20889
1783.42	3.35748
1783.67	2.466
1783.93	12.0839
1784.18	3.58038
1784.44	2.6785
1784.69	-2.06525
1784.94	2.71002
1785.2	-3.98071
1785.45	6.48865
1785.71	4.57483
1785.96	5.55399
1786.22	0.833069
1786.47	0.90213
1786.73	-8.55557
1786.98	17.3279
1787.23	1.26047
1787.49	4.33484
1787.74	12.2087
1788	4.74884
1788.25	5.81384
1788.51	0.139069
1788.76	5.99835
1789.02	11.8652
1789.27	5.23108
1789.52	10.0743
1789.78	7.25818
1790.03	1.54333
1790.29	0.587769
1790.54	4.42435
1790.79	10.9688
1791.05	0.340729
1791.3	1.27393
1791.56	8.93161
1791.81	7.03961
1792.07	12.8051
1792.32	7.10513
1792.57	-0.513245
1792.83	9.1041
1793.08	-6.22485
1793.34	15.8599
1793.59	-2.31366
1793.84	11.1342
1794.1	-2.31235
1794.35	-7.12048
1794.61	5.55377
1794.86	-4.76825
1795.11	4.96484
1795.37	11.7558
1795.62	10.8637
1795.88	15.7369
1796.13	3.32559
1796.38	9.16589
1796.64	6.35956
1796.89	5.46747
1797.15	7.44934
1797.4	-3.07449
1797.65	-0.145203
1797.91	5.66116
1798.16	12.418
1798.41	8.57718
1798.67	4.71658
1798.92	10.4556
1799.18	5.60321
1799.43	0.742645
1799.68	-3.14029
1799.94	17.9641
1800.19	15.0577
1800.45	0.634247
1800.7	13.1166
1800.95	13.1202
1801.21	5.45184
1801.46	-2.20587
1801.71	4.55444
1801.97	13.2469
1802.22	-0.146362
1802.48	-2.96164
1802.73	1.92148
1802.98	1.04059
1803.24	0.136536
1803.49	0.165588
1803.74	0.193695
1804	-0.702118
1804.25	-0.629608
1804.51	0.401093
1804.76	13.9654
1805.01	13.0965
1805.26	2.59253
1805.52	15.1896
1805.77	22.9627
1806.03	4.71777
1806.28	-5.83258
1806.53	1.90881
1806.79	9.63583
1807.04	2.90198
1807.29	5.80548
1807.55	9.67682
1807.8	5.83878
1808.05	9.71393
1808.31	2.02405
1808.56	12.6507
1808.81	17.4942
1809.07	13.6606
1809.32	5.97366
1809.57	12.746
1809.83	10.8376
1810.08	6.02515
1810.33	-0.732056
1810.59	6.01489
1810.84	5.05774
1811.09	-0.722961
1811.35	8.92679
1811.6	12.8009
1811.85	13.8004
1812.11	12.8861
1812.36	11.9846
1812.61	7.23087
1812.87	14.0238
1813.12	3.45148
1813.37	-4.20258
1813.63	10.3643
1813.88	5.63071
1814.13	19.2701
1814.39	4.87674
1814.64	13.6437
1814.89	3.06473
1815.14	5.99719
1815.4	15.6873
1815.65	3.15146
1815.9	0.274475
1816.16	13.8554
1816.41	-5.47443
1816.66	9.99643
1816.92	11.8383
1817.17	7.82333
1817.42	-0.904053
1817.68	10.729
1817.93	7.91165
1818.18	2.22125
1818.43	8.0282
1818.69	16.7401
1818.94	1.31738
1819.19	14.9031
1819.44	7.21103
1819.7	14.9883
1819.95	5.37216
1820.2	17.0307
1820.46	16.1034
1820.71	5.50967
1820.96	12.341
1821.22	9.50046
1821.47	1.81284
1821.72	14.4387
1821.97	15.4449
1822.23	24.1862
1822.48	4.85571
1822.73	17.4645
1822.99	11.6454
1823.24	15.4991
1823.49	3.85898
1823.74	7.75308
1824	5.85718
1824.25	9.76675
1824.5	7.86972
1824.75	2.10446
1825.01	7.9592
1825.26	11.8591
1825.51	6.06012
1825.76	8.0047
1826.02	5.12189
1826.27	18.6968
1826.52	10.9688
1826.77	6.16342
1827.03	1.36191
1827.28	11.0974
1827.53	7.26019
1827.78	15.0078
1828.04	7.25565
1828.29	14.9719
1828.54	-2.49963
1828.8	12.0182
1829.05	12.0207
1829.3	9.10959
1829.55	17.8151
1829.81	14.8708
1830.06	7.10535
1830.31	2.23904
1830.56	10.9842
1830.81	-0.580963
1831.07	16.9026
1831.32	3.3989
1831.57	15.0713
1831.82	9.31192
1832.08	11.3081
1832.33	9.45145
1832.58	3.67746
1832.83	3.68341
1833.09	6.61557
1833.34	19.2628
1833.59	2.80042
1833.84	9.61163
1834.09	6.58301
1834.35	4.47574
1834.6	5.30545
1834.85	9.04779
1835.1	16.7184
1835.36	10.8448
1835.61	11.8296
1835.86	9.06155
1836.11	6.60916
1836.36	9.00555
1836.62	2.84671
1836.87	4.68359
1837.12	0.570709
1837.37	11.9856
1837.62	16.4976
1837.88	15.4032
1838.13	1.98901
1838.38	3.52277
1838.63	6.57513
1838.88	17.3401
1839.14	7.69608
1839.39	8.72873
1839.64	17.4541
1839.89	5.51044
1840.14	10.1608
1840.4	6.1196
1840.65	5.00708
1840.9	8.73444
1841.15	17.2965
1841.4	2.69861
1841.66	13.2104
1841.91	1.53506
1842.16	4.3808
1842.41	-0.392151
1842.66	9.2453
1842.92	-4.22125
1843.17	17.9688
1843.42	-0.359344
1843.67	16.0223
1843.92	-0.352936
1844.17	2.58038
1844.43	15.1164
1844.68	6.41156
1844.93	8.36069
1845.18	13.2395
1845.43	7.59802
1845.69	9.67465
1845.94	13.7098
1846.19	1.24377
1846.44	12.5688
1846.69	10.1512
1846.94	10.7355
1847.19	7.78888
1847.45	6.89828
1847.7	6.10641
1847.95	10.9654
1848.2	14.6883
1848.45	9.83377
1848.7	5.97577
1848.96	13.6128
1849.21	1.01593
1849.46	4.77823
1849.71	14.2953
1849.96	12.2734
1850.21	11.2279
1850.46	8.27774
1850.72	5.33746
1850.97	5.29205
1851.22	7.17923
1851.47	21.5663
1851.72	2.36078
1851.97	11.9716
1852.23	4.29965
1852.48	3.34634
1852.73	9.10287
1852.98	3.3284
1853.23	0.414703
1853.48	25.3066
1853.73	9.86322
1853.98	6.88654
1854.24	6.82001
1854.49	4.87402
1854.74	3.86264
1854.99	2.8049
1855.24	-0.151917
1855.49	9.3967
1855.74	5.54663
1855.99	-2.11603
1856.25	1.72824
1856.5	-0.18576
1856.75	1.7225
1857	16.0616
1857.25	14.1179
1857.5	15.0427
1857.75	0.636078
1858	13.0201
1858.26	7.21207
1858.51	10.0175
1858.76	18.5532
1859.01	14.6522
1859.26	11.7537
1859.51	-6.39417
1859.76	10.8176
1860.01	6.08386
1860.26	5.20633
1860.52	7.17331
1860.77	16.7989
1861.02	7.30734
1861.27	7.35718
1861.52	4.50009
1861.77	6.39633
1862.02	7.30374
1862.27	7.24042
1862.52	10.0412
1862.77	7.10648
1863.03	6.08679
1863.28	2.20685
1863.53	10.7565
1863.78	5.93002
1864.03	20.2115
1864.28	5.83521
1864.53	14.3677
1864.78	-1.9397
1865.03	5.6073
1865.28	3.59821
1865.53	5.38773
1865.78	6.21582
1866.04	12.7553
1866.29	4.06146
1866.54	15.3583
1866.79	-0.938507
1867.04	13.2234
1867.29	9.3443
1867.54	10.2619
1867.79	7.38525
1868.04	1.67426
1868.29	18.81
1868.54	17.8859
1868.79	4.57257
1869.04	10.2665
1869.29	5.50189
1869.54	-2.11105
1869.79	11.1891
1870.05	7.38019
1870.3	2.62549
1870.55	-3.07422
1870.8	11.1842
1871.05	4.51044
1871.3	10.1805
1871.55	7.28091
1871.8	5.35867
1872.05	11.9811
1872.3	3.3757
1872.55	10.919
1872.8	0.450378
1873.05	7.09415
1873.3	11.8166
1873.55	6.07938
1873.8	7.92188
1874.05	11.6515
1874.31	3.99023
1874.56	14.3468
1874.81	6.68219
1875.05	-9.51221
1875.31	17.8428
1875.56	14.8307
1875.81	6.21774
1876.06	13.7031
1876.31	-0.54657
1876.56	7.91245
1876.81	8.68088
1877.06	5.62692
1877.31	3.49048
1877.56	26.7104
1877.81	-0.752472
1878.06	8.14978
1878.31	9.99777
1878.56	9.10028
1878.81	2.78183
1879.06	11.3861
1879.31	-7.66632
1879.56	5.52588
1879.81	6.47101
1880.06	-2.98862
1880.31	5.5849
1880.56	-3.94269
1880.81	9.27914
1881.06	11.0328
1881.31	1.42249
1881.56	1.27182
1881.81	0.1651
1882.06	3.75952
1882.31	1.69489
1882.56	8.18365
1882.81	21.8289
1883.06	3.18408
1883.31	5.6553
1883.56	0.393341
1883.81	5.20691
1884.06	-3.18521
1884.31	9.93246
1884.56	5.3649
1884.81	0.783936
1885.06	0.834198
1885.31	6.58002
1885.56	10.4958
1885.81	-0.759888
1886.06	13.439
1886.31	6.77176
1886.56	-0.884308
1886.81	7.54678
1887.06	-2.89856
1887.31	12.1253
1887.56	2.61874
1887.81	11.0111
1888.06	13.7235
1888.31	16.4498
1888.56	21.0602
1888.81	-1.61636
1889.06	3.06531
1889.31	2.1152
1889.56	0.239319
1889.81	4.99908
1890.06	11.6776
1890.31	-0.501709
1890.56	-1.42349
1890.81	5.15491
1891.06	-0.504456
1891.31	5.14276
1891.56	13.6044
1891.8	4.18619
1892.05	7.93661
1892.3	13.5431
1892.55	1.23889
1892.8	4.871
1893.05	-1.87668
1893.3	1.75848
1893.55	1.80267
1893.8	13.0591
1894.05	16.7308
1894.3	1.65717
1894.55	8.22998
1894.8	4.49448
1895.05	13.9253
1895.3	10.2101
1895.55	10.2569
1895.8	14.069
1896.05	2.85422
1896.3	7.62433
1896.55	7.68274
1896.79	-1.67584
1897.04	8.70398
1897.29	-0.684113
1897.54	3.0799
1897.79	4.94525
1898.04	4.91074
1898.29	-1.7226
1898.54	3.85004
1898.79	-2.79855
1899.04	5.62061
1899.29	7.47504
1899.54	7.43588
1899.79	2.71802
1900.04	4.59924
1900.28	6.50446
1900.53	4.67014
1900.78	4.74002
1901.03	2.93008
1901.28	-2.63843
1901.53	4.01205
1901.78	15.393
1902.03	2.27969
1902.28	-2.42731
1902.53	6.02039
1902.78	0.348022
1903.03	7.84512
1903.27	14.4101
1903.52	9.69742
1903.77	13.4536
1904.02	0.290039
1904.27	9.68677
1904.52	7.79581
1904.77	13.4366
1905.02	9.67889
1905.27	17.1811
1905.52	10.4814
1905.76	5.7153
1906.01	8.50076
1906.26	-0.920197
1906.51	-1.87961
1906.76	2.80371
1907.01	-2.80582
1907.26	-4.66351
1907.51	3.85837
1907.76	4.85321
1908	-4.51477
1908.25	-8.24472
1908.5	4.95642
1908.75	-4.38028
1909	6.97446
1909.25	3.30649
1909.5	9.05563
1909.75	3.52563
1909.99	9.29233
1910.24	5.62448
1910.49	14.1732
1910.74	10.4588
1910.99	4.84232
1911.24	7.68326
1911.49	-3.61771
1911.74	-0.812653
1911.98	6.71591
1912.23	2.95142
1912.48	12.3791
1912.73	2.02719
1912.98	21.8324
1913.23	-0.704163
1913.48	7.88452
1913.73	12.7028
1913.97	11.8324
1914.22	9.08224
1914.47	4.44159
1914.72	14.8878
1914.97	-2.04962
1915.22	3.63083
1915.47	-0.150085
1915.71	6.43335
1915.96	-4.89041
1916.21	6.3761
1916.46	13.8645
1916.71	2.50378
1916.96	10.011
1917.2	-1.32257
1917.45	4.32596
1917.7	-0.360718
1917.95	4.41479
1918.2	6.38449
1918.45	5.53723
1918.7	4.6987
1918.94	-0.855774
1919.19	1.18179
1919.44	10.7315
1919.69	-5.27637
1919.94	19.3015
1920.19	6.9736
1920.43	1.36749
1920.68	5.24228
1920.93	3.43991
1921.18	7.26462
1921.43	19.6166
1921.67	5.45718
1921.92	23.4286
1922.17	4.48923
1922.42	7.27945
1922.67	-5.04382
1922.92	5.33704
1923.16	-5.07788
1923.41	9.07718
1923.66	16.5949
1923.91	8.98285
1924.16	21.2422
1924.41	9.90732
1924.65	9.93527
1924.9	1.48819
1925.15	4.40347
1925.4	16.8058
1925.65	-4.85287
1925.89	1.8562
1926.14	20.8773
1926.39	6.7897
1926.64	6.85306
1926.89	1.22552
1927.13	6.95822
1927.38	22.159
1927.63	24.099
1927.88	-3.33163
1928.12	-3.3028
1928.37	12.8578
1928.62	14.8029
1928.87	10.1277
1929.12	0.731995
1929.36	6.52917
1929.61	0.922913
1929.86	1.97552
1930.11	-0.792206
1930.36	8.78726
1930.6	2.15985
1930.85	10.7172
1931.1	6.89478
1931.35	6.85959
1931.6	9.67215
1931.84	6.78821
1932.09	13.3937
1932.34	13.3549
1932.59	-1.82852
1932.83	5.7291
1933.08	11.4688
1933.33	-4.5463
1933.58	7.01953
1933.83	9.15106
1934.07	5.64224
1934.32	12.5735
1934.57	10.904
1934.82	10.1449
1935.06	7.43503
1935.31	12.2654
1935.56	15.8576
1935.81	14.9117
1936.05	7.26868
1936.3	12.9474
1936.55	13.8365
1936.8	11.8613
1937.04	15.6129
1937.29	11.7455
1937.54	-8.29443
1937.79	11.6461
1938.03	12.6282
1938.28	11.7956
1938.53	6.12015
1938.78	9.03589
1939.02	7.18976
1939.27	9.14447
1939.52	-1.2818
1939.77	16.8493
1940.01	15.9898
1940.26	8.47336
1940.51	12.5024
1940.76	14.5098
1941	11.6369
1941.25	9.67944
1941.5	11.4613
1941.75	5.60822
1941.99	10.5637
1942.24	9.90976
1942.49	12.8234
1942.74	9.94925
1942.98	5.99765
1943.23	6.82401
1943.48	18.2305
1943.72	11.7611
1943.97	11.8252
1944.22	10.9471
1944.46	10.0742
1944.71	14.9373
1944.96	15.98
1945.21	7.46317
1945.45	19.0099
1945.7	22.9005
1945.95	0.00357056
1946.2	7.69278
1946.44	20.1467
1946.69	11.534
1946.94	10.5553
1947.18	6.70993
1947.43	5.75589
1947.68	15.3229
1947.92	0.979675
1948.17	4.79428
1948.42	6.73996
1948.67	0.11203
1948.91	6.87906
1949.16	9.82645
1949.41	9.91544
1949.65	9.06042
1949.9	29.3192
1950.15	20.8501
1950.4	6.59729
1950.64	22.0723
1950.89	3.02658
1951.13	10.8239
1951.38	19.5604
1951.63	16.7479
1951.88	7.2016
1952.12	3.40375
1952.37	13.9784
1952.62	11.1693
1952.86	23.7082
1953.11	10.1667
1953.36	10.0326
1953.6	6.00363
1953.85	4.87811
1954.1	14.3111
1954.34	-5.92471
1954.59	12.2494
1954.84	10.3416
1955.08	5.60831
1955.33	1.87866
1955.58	12.5892
1955.82	11.8303
1956.07	14.8101
1956.32	10.1095
1956.56	15.9385
1956.81	12.1782
1957.06	14.1725
1957.3	13.2765
1957.55	16.2096
1957.8	10.4812
1958.04	2.82047
1958.29	24.941
1958.54	0.884949
1958.78	16.2139
1959.03	11.3897
1959.28	5.61081
1959.52	4.60892
1959.77	27.6187
1960.02	6.44589
1960.26	15.04
1960.51	6.34695
1960.76	13.0192
1961	4.34323
1961.25	13.9256
1961.5	13.9454
1961.74	3.41211
1961.99	12.0698
1962.23	27.4482
1962.48	6.35205
1962.73	15.9704
1962.97	16.9491
1963.22	13.1287
1963.47	21.7985
1963.71	3.60181
1963.96	9.39481
1964.2	1.70911
1964.45	-1.18088
1964.7	13.2307
1964.94	21.8717
1965.19	13.2499
1965.44	18.0981
1965.68	18.1707
1965.93	12.4863
1966.18	17.3644
1966.42	16.4596
1966.67	9.76627
1966.91	0.154083
1967.16	10.7447
1967.41	18.4687
1967.65	13.677
1967.9	9.8551
1968.14	7.92545
1968.39	12.7047
1968.64	11.6877
1968.88	15.4536
1969.13	6.70926
1969.37	5.65738
1969.62	13.2688
1969.87	15.1313
1970.11	22.7756
1970.36	10.2457
1970.61	-2.26328
1970.85	10.1813
1971.1	11.1171
1971.34	7.26422
1971.59	13.0636
1971.84	-2.25073
1972.08	8.32187
1972.33	10.2386
1972.57	7.3342
1972.82	10.1598
1973.06	-5.24869
1973.31	5.25253
1973.56	0.428314
1973.8	15.7479
1974.05	13.8286
1974.29	24.3834
1974.54	4.27478
1974.78	11.98
1975.03	12.9901
1975.28	20.7183
1975.52	0.62619
1975.77	7.37686
1976.01	14.1155
1976.26	13.173
1976.51	13.1789
1976.75	3.58105
1977	9.31897
1977.24	13.1227
1977.49	11.1587
1977.73	7.27881
1977.98	3.41034
1978.22	8.1774
1978.47	13.9187
1978.72	7.2197
1978.96	3.40363
1979.21	8.20163
1979.45	6.30811
1979.7	11.1088
1979.95	12.0336
1980.19	11.9785
1980.44	18.6413
1980.68	18.6263
1980.93	-2.49576
1981.17	16.6398
1981.42	8.91913
1981.66	14.5423
1981.91	14.4102
1982.16	11.3577
1982.4	16.6953
1982.65	10.4784
1982.89	8.70129
1983.14	5.5191
1983.38	9.8045
1983.63	16.8993
1983.87	4.18338
1984.12	14.6618
1984.36	18.5943
1984.61	5.55551
1984.85	3.53973
1985.1	6.92624
1985.34	6.45529
1985.59	25.0133
1985.84	9.94745
1986.08	12.745
1986.33	14.8824
1986.57	11.8307
1986.82	3.75735
1987.06	1.12756
1987.31	6.50238
1987.55	10.0247
1987.8	6.07037
1988.04	13.1351
1988.29	10.4753
1988.53	20.525
1988.78	5.53076
1989.02	4.87994
1989.27	4.24036
1989.51	4.02185
1989.76	4.80457
1990	8.47217
1990.25	4.7933
1990.49	7.97748
1990.74	4.7648
1990.98	15.5206
1991.23	11.7447
1991.47	7.37238
1991.72	4.35153
1991.96	16.1111
1992.21	6.52908
1992.45	8.95456
1992.7	5.63239
1992.94	4.51712
1993.19	3.39777
1993.43	8.64972
1993.68	8.20743
1993.92	8.73645
1994.17	3.91675
1994.41	5.03644
1994.66	6.1875
1994.9	9.14728
1995.15	2.79816
1995.39	3.76974
1995.64	3.23853
1995.88	6.34198
1996.13	4.86166
1996.37	6.64462
1996.62	11.954
1996.86	7.67117
1997.11	5.8847
1997.35	5.73639
1997.6	9.90302
1997.84	6.7554
1998.09	-2.41888
1998.33	3.6196
1998.58	6.79108
1998.82	6.9151
1999.07	-3.16104
1999.31	-4.13422
1999.55	2.91922
1999.8	-4.38965
2000.04	1.91992
2000.29	6.41257
2000.53	1.76715
2000.78	0.48877
2001.02	4.37411
2001.27	6.6405
2001.51	0.817474
2001.76	-1.55548
2002	-1.11807
2002.25	1.16562
2002.49	2.09897
2002.73	1.01599
2002.98	2.47028
2003.22	3.5658
2003.47	6.44565
2003.71	5.01965
2003.96	1.21069
2004.2	3.7059
2004.45	1.83087
2004.69	5.61673
2004.94	11.486
2005.1	7.18176
2005.34	6.22394
2005.59	-4.18149
2005.84	5.26901
2006.08	9.06317
2006.33	-2.23572
2006.58	5.34097
2006.83	-10.7467
2007.08	3.39468
2007.32	6.19022
2007.57	-2.37924
2007.82	7.88431
2008.06	3.05875
2008.31	4.87286
2008.56	-3.68759
2008.81	-1.89166
2009.05	7.44217
2009.3	-3.94229
2009.55	4.47006
2009.8	7.22626
2010.04	8.08972
2010.29	-8.87372
2010.54	-1.34265
2010.79	-1.34613
2011.03	-3.2309
2011.28	9.94833
2011.53	-14.548
2011.77	3.33511
2012.02	6.14337
2012.27	4.23169
2012.52	5.10934
2012.76	2.15912
2013.01	-1.73099
2013.26	3.82184
2013.51	10.2859
2013.75	6.38824
2014	-1.293
2014.25	-6.09982
2014.49	3.26447
2014.74	7.04306
2014.99	5.22034
2015.24	3.3988
2015.48	2.49973
2015.73	2.4411
2015.98	0.740875
2016.22	-2.8353
2016.47	5.65506
2016.72	3.75562
2016.96	3.70792
2017.21	5.51343
2017.46	-1.15616
2017.71	-1.27557
2017.95	13.6172
2018.2	12.5706
2018.45	4.01547
2018.69	16.078
2018.94	-5.5802
2019.19	-0.935059
2019.43	8.38803
2019.68	0.885834
2019.93	1.81973
2020.18	-4.74786
2020.42	-6.62604
2020.67	-0.97641
2020.92	-1.89227
2021.16	-7.50867
2021.41	-1.90143
2021.66	-8.48279
2021.9	-5.71436
2022.15	-2.02518
2022.4	12.8759
2022.64	5.30319
2022.89	2.44064
2023.14	14.5326
2023.38	14.4675
2023.63	9.72726
2023.88	2.19485
2024.12	2.08707
2024.37	-1.75
2024.62	0.0197754
2024.86	-1.00516
2025.11	-2.02344
2025.36	1.62872
2025.6	2.46521
2025.85	3.45966
2026.1	3.59763
2026.34	-5.52634
2026.59	-0.608765
2026.84	3.38998
2027.08	-4.89761
2027.33	-8.7077
2027.58	6.97861
2027.82	8.45227
2028.07	-5.13876
2028.32	-3.32159
2028.56	1.20953
2028.81	-6.70432
2029.06	5.59042
2029.3	10.6932
2029.55	-4.59717
2029.79	-0.201569
2030.04	-1.20706
2030.29	1.44373
2030.53	-11.3866
2030.78	-5.65512
2031.03	2.71201
2031.27	-4.74722
2031.52	1.81595
2031.77	0.980408
2032.01	8.56049
2032.26	1.20807
2032.51	-10.835
2032.75	3.26117
2033	5.20535
2033.24	7.17987
2033.49	5.30569
2033.74	-5.13037
2033.98	7.70078
2034.23	7.41919
2034.48	7.40515
2034.72	5.66556
2034.97	2.98758
2035.21	6.92776
2035.46	-3.13382
2035.71	14.7863
2035.95	-7.73022
2036.2	7.10199
2036.45	-0.327545
2036.69	0.664581
2036.94	8.14536
2037.18	4.3909
2037.43	-3.11575
2037.68	-3.15018
2037.92	-0.386383
2038.17	-7.90634
2038.41	3.26224
2038.66	-8.92789
2038.91	3.16611
2039.15	2.18472
2039.4	-5.35587
2039.64	9.49612
2039.89	-6.44852
2040.14	-1.85806
2040.38	-9.38745
2040.63	-0.118622
2040.87	2.63077
2041.12	3.54974
2041.37	0.735504
2041.61	-13.288
2041.86	-0.267456
2042.1	-4.99655
2042.35	2.45337
2042.6	4.31824
2042.84	4.35922
2043.09	2.59476
2043.33	-2.86356
2043.58	7.52805
2043.83	7.56268
2044.07	9.40927
2044.32	3.72955
2044.56	2.64951
2044.81	-6.03259
2045.05	10.3567
2045.3	-1.77606
2045.55	6.24448
2045.79	2.05902
2046.04	-3.01804
2046.28	-0.487122
2046.53	4.91107
2046.77	-4.38043
2047.02	-3.56213
2047.26	3.65683
2047.51	-6.63168
2047.76	4.57733
2048	6.46237
2048.25	3.69293
2048.49	2.82953
2048.74	-10.1704
2048.98	4.82813
2049.23	5.86081
2049.48	-7.08789
2049.72	-4.20331
2049.97	1.49033
2050.21	-1.26556
2050.46	-0.317139
2050.7	-1.27325
2050.95	2.3989
2051.2	3.25543
2051.44	5.12973
2051.69	-5.12408
2051.93	-3.20938
2052.18	-3.18777
2052.42	-5.01263
2052.67	2.51758
2052.91	-2.08548
2053.16	-6.66205
2053.4	0.0164185
2053.65	5.68906
2053.89	-0.817841
2054.14	2.936
2054.39	1.9964
2054.63	-8.30429
2054.88	3.82736
2055.12	2.82892
2055.37	0.93222
2055.61	-2.82047
2055.86	-0.976715
2056.1	-8.48157
2056.35	7.39633
2056.59	-3.81464
2056.84	-9.40256
2057.08	3.71576
2057.33	9.37137
2057.57	1.00687
2057.82	-3.61127
2058.07	-0.725006
2058.31	3.09167
2058.56	9.71234
2058.8	0.399628
2059.04	-8.00311
2059.29	7.93582
2059.54	-0.489502
2059.78	2.28439
2060.03	1.30173
2060.27	-0.583252
2060.52	4.14081
2060.76	3.25342
2061.01	1.41412
2061.25	-0.441956
2061.5	1.44196
2061.74	6.14105
2061.99	11.7887
2062.23	5.27335
2062.48	8.13544
2062.72	3.51407
2062.97	-10.4861
2063.21	-2.94501
2063.46	2.71515
2063.7	9.30701
2063.95	-0.973602
2064.19	31.8838
2064.44	3.80844
2064.68	12.3365
2064.93	-1.63553
2065.17	1.2681
2065.42	13.5503
2065.66	11.7384
2065.91	-1.36185
2066.15	9.91873
2066.39	1.51447
2066.64	8.12378
2066.88	14.7336
2067.13	6.32794
2067.37	5.44662
2067.62	12.0704
2067.86	-2.92975
2068.11	15.8894
2068.35	-0.0307922
2068.6	-0.0359802
2068.84	-2.90088
2069.09	-5.81049
2069.33	-5.0058
2069.58	-3.15463
2069.82	-7.80847
2070.07	6.43484
2070.31	1.89725
2070.56	2.06448
2070.8	13.2948
2071.04	0.977722
2071.29	8.95877
2071.53	3.37329
2071.78	5.22708
2072.02	6.15244
2072.27	-4.20868
2072.51	9.88831
2072.76	10.8389
2073	-2.35757
2073.25	5.19742
2073.49	6.1532
2073.73	0.528351
2073.98	14.6964
2074.22	27.0119
2074.47	5.43912
2074.71	5.55655
2074.96	21.7378
2075.2	20.9689
2075.45	5.98135
2075.69	5.09253
2075.94	6.99268
2076.18	13.6121
2076.42	0.361755
2076.67	0.301514
2076.91	-5.43814
2077.16	13.3038
2077.4	3.85254
2077.65	3.90021
2077.89	10.5689
2078.13	10.6014
2078.38	7.80627
2078.62	11.6345
2078.87	1.34552
2079.11	11.8701
2079.35	4.38126
2079.6	5.38434
2079.84	20.5565
2080.09	11.1488
2080.33	-0.18924
2080.58	0.729401
2080.82	5.43765
2081.06	0.710419
2081.31	7.32123
2081.55	8.26495
2081.8	10.1839
2082.04	14.9366
2082.29	-5.83234
2082.53	5.51633
2082.77	14.0189
2083.02	2.66922
2083.26	2.66269
2083.51	-2.05569
2083.75	3.62009
2083.99	-6.77271
2084.24	14.9718
2084.48	9.31552
2084.73	-1.07465
2084.97	19.7205
2085.21	10.2738
2085.46	-2.92072
2085.7	14.1834
2085.95	1.99747
2086.19	-0.77356
2086.43	11.5588
2086.68	3.08963
2086.92	1.25427
2087.17	11.6905
2087.41	-0.604828
2087.65	0.350433
2087.9	5.09576
2088.14	3.22171
2088.39	2.29605
2088.63	3.26126
2088.87	6.1608
2089.12	7.16327
2089.36	10.0989
2089.6	7.28046
2089.85	4.45956
2090.09	-5.93417
2090.33	7.36365
2090.58	6.45538
2090.82	4.59909
2091.07	2.74054
2091.31	8.52173
2091.55	4.82544
2091.8	8.72632
2092.04	-0.657867
2092.28	-3.39438
2092.53	12.8321
2092.77	8.1673
2093.02	4.45279
2093.26	13.0853
2093.5	8.40149
2093.75	17.9685
2093.99	11.3325
2094.23	-3.87836
2094.48	8.46875
2094.72	1.79156
2094.96	9.34573
2095.21	7.39209
2095.45	4.50125
2095.7	0.67038
2095.94	8.25269
2096.18	5.39474
2096.43	0.632172
2096.67	18.6371
2096.91	0.533051
2097.16	3.32813
2097.4	7.10434
2097.64	8.99033
2097.89	-0.519073
2098.13	9.88693
2098.37	6.09351
2098.62	3.24014
2098.86	5.12387
2099.1	3.21652
2099.35	4.16464
2099.59	4.17184
2099.83	14.6259
2100.08	9.90219
2100.32	5.19928
2100.56	8.12674
2100.81	7.23978
2101.05	3.48163
2101.29	9.20126
2101.54	7.30331
2101.78	8.25116
2102.02	15.8531
2102.27	14.8834
2102.51	9.13373
2102.75	2.42874
2103	-0.444519
2103.24	13.7864
2103.48	-2.36191
2103.73	9.98962
2103.97	7.17621
2104.21	14.8248
2104.46	3.48001
2104.7	11.1265
2104.94	-0.210846
2105.18	3.66397
2105.43	15.1265
2105.67	6.61209
2105.91	5.69519
2106.16	-1.89203
2106.4	6.6832
2106.64	5.76642
2106.89	10.527
2107.13	10.4917
2107.37	11.3815
2107.61	9.3996
2107.86	1.71661
2108.1	7.33337
2108.34	5.37677
2108.59	1.56055
2108.83	10.1285
2109.07	3.57614
2109.32	11.2282
2109.56	4.58444
2109.8	7.43878
2110.04	8.39102
2110.29	7.44397
2110.53	20.7478
2110.77	8.39731
2111.01	3.62616
2111.26	8.33328
2111.5	5.45865
2111.74	15.8892
2111.99	8.297
2112.23	4.53674
2112.47	-3.97842
2112.71	-1.08694
2112.96	5.64966
2113.2	4.76132
2113.44	10.4949
2113.69	9.52164
2113.93	15.2003
2114.17	7.59717
2114.41	0.964294
2114.66	9.5267
2114.9	7.60876
2115.14	0.932343
2115.38	2.81226
2115.63	6.5892
2115.87	15.0727
2116.11	5.51837
2116.35	4.54657
2116.6	5.48386
2116.84	8.32294
2117.08	13.0909
2117.32	10.2054
2117.57	6.36017
2117.81	3.46304
2118.05	2.43076
2118.29	-4.29907
2118.54	-1.51733
2118.78	4.11053
2119.02	17.3205
2119.26	1.14346
2119.51	4.88126
2119.75	7.68311
2119.99	2.93521
2120.23	9.58417
2120.48	15.3279
2120.72	5.88385
2120.96	10.7003
2121.2	6.03928
2121.45	6.11142
2121.69	2.38431
2121.93	7.1889
2122.17	12.9337
2122.42	2.53854
2122.66	14.917
2122.9	12.0971
2123.14	14.0074
2123.38	4.49072
2123.63	12.0504
2123.87	6.30157
2124.11	10.0128
2124.35	-6.2352
2124.6	1.20767
2124.84	14.3422
2125.08	9.49969
2125.32	5.61795
2125.57	3.63663
2125.81	8.29205
2126.05	6.33548
2126.29	5.32587
2126.53	5.26022
2126.78	13.7121
2127.02	4.23273
2127.26	8.00198
2127.5	5.14676
2127.74	7.00723
2127.99	8.88336
2128.23	3.21634
2128.47	14.5627
2128.71	7.93378
2128.95	15.4722
2129.2	9.78348
2129.44	19.2224
2129.68	-0.636383
2129.92	2.18216
2130.16	14.4437
2130.41	7.80087
2130.65	-0.73822
2130.89	3.94135
2131.13	10.5054
2131.37	10.4641
2131.62	12.3255
2131.86	7.56839
2132.1	5.61914
2132.34	5.56668
2132.58	17.8084
2132.82	10.2604
2133.07	5.55844
2133.31	18.7841
2133.55	-0.0848083
2133.79	16.9218
2134.03	12.2121
2134.28	14.0934
2134.52	6.53683
2134.76	5.58655
2135	14.0648
2135.24	5.54132
2135.48	6.43097
2135.73	22.3643
2135.97	2.4729
2136.21	-0.393341
2136.45	2.45639
2136.69	9.0676
2136.94	9.07773
2137.18	-2.19705
2137.42	3.53302
2137.66	11.9839
2137.9	5.29492
2138.14	4.29227
2138.39	5.30939
2138.63	8.24173
2138.87	4.54068
2139.11	10.9581
2139.35	2.37491
2139.59	11.7473
2139.83	14.5278
2140.08	3.18576
2140.32	10.6901
2140.56	9.7265
2140.8	1.22711
2141.04	5.94662
2141.28	9.64209
2141.53	10.5167
2141.77	7.67178
2142.01	-0.795471
2142.25	3.98053
2142.49	4.96979
2142.73	10.9081
2142.97	22.0379
2143.21	3.30618
2143.46	3.39908
2143.7	2.50629
2143.94	12.0268
2144.18	15.8994
2144.42	1.85205
2144.66	-0.227173
2144.9	7.34567
2145.15	16.7608
2145.39	1.69861
2145.63	12.016
2145.87	10.1106
2146.11	12.9069
2146.35	9.12347
2146.59	2.51459
2146.83	8.11032
2147.08	25.9216
2147.32	11.7914
2147.56	8.94205
2147.8	6.08945
2148.04	9.81094
2148.28	18.2218
2148.52	2.21191
2148.76	6.84277
2149.01	8.64182
2149.25	2.88861
2149.49	15.9473
2149.73	6.4874
2149.97	8.30283
2150.21	-3.91019
2150.45	-0.162292
2150.69	2.6803
2150.93	12.1076
2151.18	1.83044
2151.42	2.81573
2151.66	4.71814
2151.9	15.0736
2152.14	2.83621
2152.38	14.983
2152.62	4.61331
2152.86	12.0643
2153.1	17.6632
2153.34	2.63791
2153.59	4.45953
2153.83	7.19336
2154.07	9.89349
2154.31	14.443
2154.55	16.1851
2154.79	4.82184
2155.03	10.3342
2155.27	16.7849
2155.51	-2.91861
2155.75	0.764526
2155.99	11.946
2156.23	-6.74911
2156.47	12.8625
2156.72	4.46008
2156.96	-0.18454
2157.2	10.1395
2157.44	21.4151
2157.68	11.1849
2157.92	9.32965
2158.16	12.1327
2158.4	8.38052
2158.64	-1.9267
2158.88	0.839233
2159.12	13.8701
2159.36	6.33316
2159.6	0.653046
2159.84	6.18085
2160.09	2.37897
2160.33	6.05493
2160.57	0.425415
2160.81	3.20923
2161.05	5.97974
2161.29	0.355316
2161.53	8.74298
2161.77	-3.38388
2162.01	11.5457
2162.25	5.94366
2162.49	23.6389
2162.73	1.2128
2162.97	8.64127
2163.21	3.01572
2163.45	2.0506
2163.69	-0.781372
2163.93	8.47125
2164.17	6.52789
2164.41	9.27594
2164.66	15.819
2164.9	8.39435
2165.14	9.33197
2165.38	0.95166
2165.62	5.61581
2165.86	11.1681
2166.1	3.68271
2166.34	8.2941
2166.58	15.6824
2166.82	10.0501
2167.06	19.2855
2167.3	-3.14871
2167.54	17.1659
2167.78	20.743
2168.02	11.4039
2168.26	3.96298
2168.5	13.281
2168.74	10.5377
2168.98	0.375671
2169.22	13.4894
2169.46	6.15814
2169.7	10.0063
2169.94	8.21347
2170.18	-2.00418
2170.42	1.69827
2170.66	5.36142
2170.9	0.680115
2171.14	7.99521
2171.38	7.77454
2171.62	-0.700958
2171.86	11.3264
2172.1	8.4852
2172.34	1.94199
2172.58	-1.78122
2172.82	1.00269
2173.06	-0.856689
2173.3	3.81396
2173.54	5.71323
2173.78	-3.55035
2174.02	10.4056
2174.26	2.97559
2174.5	1.11572
2174.74	1.11075
2174.98	4.80936
2175.22	5.72058
2175.46	-10.0861
2175.7	1.97879
2175.94	-4.55106
2176.18	13.9841
2176.42	1.89056
2176.66	19.5428
2176.9	7.47659
2177.14	-1.80692
2177.38	9.33698
2177.62	2.84537
2177.86	17.6757
2178.1	9.2327
2178.34	0.817932
2178.58	3.59796
2178.82	-3.81512
2179.06	5.47601
2179.3	2.69495
2179.54	9.19479
2179.78	-1.01993
2180.02	-1.02805
2180.26	6.3808
2180.5	6.36307
2180.74	6.35529
2180.98	3.55127
2181.22	10.0121
2181.46	-3.01352
2181.7	9.03418
2181.94	-1.21213
2182.18	9.8945
2182.42	2.44244
2182.66	-5.96457
2182.9	13.4409
2183.14	-5.19095
2183.38	4.01624
2183.62	10.4546
2183.85	-2.56049
2184.09	11.326
2184.33	3.0004
2184.57	-5.30823
2184.81	5.83667
2185.05	8.64371
2185.29	16.0999
2185.53	2.25055
2185.77	7.87042
2186.01	1.43759
2186.25	3.38306
2186.49	0.693756
2186.73	11.9258
2186.97	15.7331
2187.21	0.0139771
2187.45	-0.899139
2187.69	11.1414
2187.93	6.44522
2188.16	6.38535
2188.41	3.53403
2188.64	2.53223
2188.88	-1.26187
2189.12	-0.434998
2189.36	2.26575
2189.6	8.71567
2189.84	6.85248
2190.08	9.64096
2190.32	13.3807
2190.56	14.3327
2190.8	8.77246
2191.04	11.5744
2191.28	6.96637
2191.51	5.14139
2191.76	-4.10434
2191.99	2.41458
2192.23	11.7211
2192.47	8.06628
2192.71	-10.438
2192.95	-7.60272
2193.19	5.46368
2193.43	0.959412
2193.67	10.4
2193.91	-2.51108
2194.15	11.4885
2194.39	3.10208
2194.62	0.279968
2194.86	10.4733
2195.1	11.354
2195.34	7.56973
2195.58	9.33893
2195.82	-0.98468
2196.06	4.4888
2196.3	3.48657
2196.54	2.50125
2196.77	1.52313
2197.01	1.47903
2197.25	1.48474
2197.49	-1.28854
2197.73	8.95163
2197.97	14.5974
2198.21	4.47052
2198.45	2.70901
2198.69	10.2477
2198.93	8.48285
2199.17	11.3779
2199.4	1.25815
2199.64	13.502
2199.88	14.6056
2200.12	7.30774
2200.36	4.64252
2200.6	1.93991
2200.84	6.67661
2201.08	7.47076
2201.31	12.7284
2201.55	2.75323
2201.79	12.5245
2202.03	4.40417
2202.27	6.80353
2202.51	22.8505
2202.75	5.09021
2202.98	5.02637
2203.22	2.54987
2203.46	6.29434
2203.7	7.78696
2203.94	11.5007
2204.18	6.88196
2204.42	4.80374
2204.66	4.52835
2204.89	4.28436
2205.13	5.9765
2205.37	6.86157
2205.61	-2.42508
2205.85	6.94617
2206.09	2.30133
2206.33	6.84119
2206.56	5.93326
2206.8	6.91141
2207.04	5.1109
2207.28	18.2008
2207.52	8.03766
2207.76	3.45331
2208	9.10291
2208.23	6.36829
2208.47	8.27695
2208.71	11.1049
2208.95	-0.981171
2209.19	17.6479
2209.43	16.7089
2209.67	-8.42258
2209.9	1.86334
2210.14	5.63574
2210.38	12.2102
2210.62	11.3309
2210.86	15.1093
2211.09	6.77527
2211.33	14.3048
2211.57	1.31769
2211.81	-0.499786
2212.05	11.6505
2212.29	3.23511
2212.52	6.00305
2212.76	4.1098
2213	3.12775
2213.24	10.5349
2213.48	12.42
2213.72	12.4854
2213.95	-6.03833
2214.19	0.60968
2214.43	1.57773
2214.67	14.6751
2214.91	1.62744
2215.15	9.112
2215.38	10.9888
2215.62	15.6602
2215.86	4.45322
2216.1	-0.221893
2216.34	9.10138
2216.57	5.35641
2216.81	1.62326
2217.05	11.9065
2217.29	10.9889
2217.53	19.3921
2217.76	8.18616
2218	4.46683
2218.24	5.43347
2218.48	0.809143
2218.72	6.47012
2218.95	1.85846
2219.19	-0.909271
2219.43	15.0179
2219.67	1.03186
2219.91	13.1754
2220.14	14.0975
2220.38	12.2184
2220.62	1.9082
2220.86	7.44122
2221.09	13.8966
2221.33	-9.51672
2221.57	6.29947
2221.81	14.6632
2222.05	10.9222
2222.29	8.14655
2222.52	3.52524
2222.76	5.44019
2223	8.29688
2223.24	17.7154
2223.47	6.59814
2223.71	16.9792
2223.95	16.1384
2224.19	11.5435
2224.43	6.00232
2224.66	9.81439
2224.9	3.34271
2225.14	9.05063
2225.38	7.24887
2225.61	4.50632
2225.85	5.5123
2226.09	1.81393
2226.33	11.2541
2226.56	5.6926
2226.8	7.61972
2227.04	16.098
2227.28	12.3702
2227.51	17.9902
2227.75	9.52777
2227.99	7.63104
2228.23	15.1115
2228.47	4.78333
2228.7	2.89316
2228.94	9.45657
2229.18	2.01047
2229.42	6.78247
2229.65	5.92181
2229.89	8.79419
2230.13	13.5484
2230.36	9.86057
2230.6	8.99106
2230.84	-0.325012
2231.08	15.7202
2231.31	12.9649
2231.55	10.2113
2231.79	10.2753
2232.03	12.2195
2232.27	20.7429
2232.5	19.8663
2232.74	5.81622
2232.98	3.05228
2233.21	10.6404
2233.45	9.74585
2233.69	10.7246
2233.93	7.8847
2234.16	11.6255
2234.4	8.76559
2234.64	15.2969
2234.87	6.71927
2235.11	16.9844
2235.35	9.47009
2235.59	2.90198
2235.82	13.2656
2236.06	11.4043
2236.3	19.8837
2236.54	12.3778
2236.77	13.3956
2237.01	13.4644
2237.25	2.29181
2237.48	-6.99615
2237.72	4.42599
2237.96	0.742981
2238.2	2.71063
2238.43	9.40759
2238.67	23.6745
2238.91	18.0381
2239.14	1.03116
2239.38	18.9124
2239.62	5.62131
2239.85	7.43283
2240.09	11.1681
2240.33	5.64438
2240.57	19.9175
2240.8	17.1097
2241.04	7.69659
2241.28	9.60992
2241.51	16.2375
2241.75	8.71667
2241.99	17.248
2242.22	2.18497
2242.46	12.5783
2242.7	7.84705
2242.94	11.5828
2243.17	3.04236
2243.41	17.1754
2243.65	12.4489
2243.88	8.68564
2244.12	9.67865
2244.36	9.77277
2244.59	15.5691
2244.83	18.5234
2245.07	8.20554
2245.3	8.26828
2245.54	11.173
2245.78	6.5108
2246.01	16.9703
2246.25	11.3283
2246.49	14.2163
2246.72	6.69562
2246.96	7.6759
2247.2	6.74518
2247.43	3.90332
2247.67	12.4063
2247.91	1.97821
2248.14	16.1549
2248.38	4.78342
2248.62	18.9605
2248.85	11.3791
2249.09	15.2197
2249.33	1.06424
2249.56	-0.830261
2249.8	4.81131
2250.04	13.2687
2250.27	12.2578
2250.51	20.6953
2250.75	24.419
2250.98	8.29959
2251.22	22.4644
2251.46	9.24115
2251.69	8.33127
2251.93	6.48953
2252.17	11.2833
2252.4	15.1708
2252.64	16.2902
2252.88	2.21045
2253.11	8.93497
2253.35	15.645
2253.59	10.9673
2253.82	26.198
2254.06	11.0744
2254.29	15.8235
2254.53	10.1057
2254.77	13.9138
2255	15.8141
2255.24	6.34485
2255.48	13.9456
2255.71	14.0005
2255.95	10.2677
2256.19	18.8635
2256.42	2.78564
2256.66	11.381
2256.9	1.94122
2257.13	14.3327
2257.37	-1.77231
2257.6	15.3395
2257.84	10.6067
2258.08	15.3774
2258.31	8.76065
2258.55	8.80646
2258.78	21.2063
2259.02	11.7379
2259.26	7.0141
2259.49	13.7045
2259.73	18.4921
2259.97	7.11826
2260.2	8.0997
2260.44	10.0507
2260.67	14.907
2260.91	14.9777
2261.15	14.9956
2261.38	17.8707
2261.62	15.0443
2261.85	5.55603
2262.09	24.6378
2262.33	17.0918
2262.56	8.59494
2262.8	11.5368
2263.03	25.9277
2263.27	3.16919
2263.51	1.38522
2263.74	24.3973
2263.98	9.24554
2264.21	7.42987
2264.45	4.64288
2264.69	16.1686
2264.92	17.1828
2265.16	26.7484
2265.39	14.3448
2265.63	6.68054
2265.86	18.0744
2266.1	7.49649
2266.34	12.1932
2266.57	20.7125
2266.81	10.1633
2267.05	13.9332
2267.28	17.6998
2267.52	14.7681
2267.75	4.22525
2267.99	14.6945
2268.22	21.3792
2268.46	4.25891
2268.7	11.9564
2268.93	16.8123
2269.17	21.6774
2269.4	11.2745
2269.64	16.1617
2269.87	12.4446
2270.11	16.3302
2270.35	21.1495
2270.58	12.6191
2270.82	13.6345
2271.05	10.8079
2271.29	10.8532
2271.52	25.2633
2271.76	22.4299
2271.99	10.958
2272.23	16.7141
2272.47	12.9054
2272.7	11.0115
2272.94	9.11581
2273.17	20.6176
2273.41	13.9374
2273.64	13.9552
2273.88	16.8422
2274.12	4.41705
2274.35	15.9221
2274.58	21.6901
2274.82	7.34882
2275.06	10.2441
2275.29	15.9771
2275.53	18.8973
2275.76	20.8916
2276	14.2681
2276.23	12.4237
2276.47	8.65509
2276.7	12.5602
2276.94	14.5837
2277.17	16.6231
2277.41	18.6702
2277.65	14.0135
2277.88	19.8259
2278.12	16.9712
2278.35	20.8187
2278.59	18.8868
2278.82	8.30377
2279.06	11.134
2279.29	14.8279
2279.53	23.3704
2279.76	3.13763
2280	11.6967
2280.23	5.88193
2280.47	11.5891
2280.71	21.1452
2280.94	23.0215
2281.17	18.1951
2281.41	16.3158
2281.65	13.463
2281.88	22.1378
2282.11	18.3674
2282.35	8.85303
2282.59	14.6822
2282.82	14.7731
2283.06	25.4604
2283.29	14.0912
2283.53	15.1868
2283.76	24.9567
2284	5.81622
2284.23	27.0114
2284.47	15.5444
2284.7	9.84744
2284.94	13.722
2285.17	9.88681
2285.41	11.7484
2285.64	4.88965
2285.88	19.3055
2286.11	36.6441
2286.35	25.1507
2286.58	14.72
2286.82	12.9248
2287.05	1.41916
2287.29	14.9333
2287.52	12.1384
2287.76	15.9714
2287.99	14.9604
2288.23	20.6913
2288.46	15.8209
2288.69	17.6508
2288.93	21.3776
2289.17	14.5352
2289.4	13.4348
2289.63	13.3898
2289.87	28.7369
2290.1	19.1258
2290.34	14.3242
2290.57	-0.0525818
2290.81	12.5299
2291.04	10.7151
2291.28	11.7515
2291.51	14.6953
2291.75	15.7144
2291.98	17.7011
2292.22	3.33289
2292.45	22.67
2292.69	22.7292
2292.92	16.0342
2293.15	18.9626
2293.39	13.2025
2293.62	20.8904
2293.86	24.7074
2294.09	18.8771
2294.33	9.18088
2294.56	17.8052
2294.8	24.5026
2295.03	11.9376
2295.27	14.7818
2295.5	8.96762
2295.73	17.5652
2295.97	7.80304
2296.2	13.5548
2296.44	19.3535
2296.67	5.92755
2296.91	11.7598
2297.14	17.6076
2297.38	11.9197
2297.61	13.9581
2297.85	14.0317
2298.08	17.932
2298.31	8.35641
2298.55	23.8645
2298.78	16.2234
2299.02	21.1044
2299.25	14.3891
2299.49	22.1001
2299.72	14.3877
2299.95	7.62418
2300.19	14.4121
2300.42	20.2587
2300.66	5.8259
2300.89	29.0267
2301.13	18.4337
2301.36	19.4076
2301.59	11.6773
2301.83	23.2321
2302.06	21.2762
2302.3	16.4596
2302.53	23.2101
2302.77	15.4703
2303	11.6048
2303.23	12.5747
2303.47	19.3604
2303.7	9.76276
2303.94	16.5737
2304.17	17.5762
2304.4	20.5185
2304.64	8.02423
2304.87	9.02948
2305.11	20.6388
2305.34	24.5304
2305.58	15.8743
2305.81	12.0513
2306.04	13.0324
2306.28	19.8064
2306.51	11.1032
2306.75	12.0606
2306.98	28.4638
2307.21	25.5214
2307.45	10.0354
2307.68	23.5354
2307.92	12.8765
2308.15	9.01248
2308.38	21.5832
2308.62	25.4977
2308.85	12.9897
2309.09	12.1001
2309.32	11.2356
2309.55	7.43851
2309.79	31.6553
2310.02	14.2529
2310.26	8.44135
2310.49	5.50803
2310.72	12.2099
2310.96	14.9402
2311.19	9.89044
2311.42	22.3311
2311.66	11.6234
2311.89	18.3345
2312.13	15.3818
2312.36	7.61804
2312.59	20.1534
2312.83	12.4687
2313.06	16.4204
2313.29	13.6529
2313.53	18.5784
2313.76	14.8087
2314	16.8408
2314.23	14.0573
2314.46	6.43478
2314.7	21.9687
2314.93	17.0595
2315.16	21.8087
2315.4	13.0409
2315.63	17.7896
2315.87	16.6547
2316.1	21.3798
2316.33	3.95093
2316.57	27.1142
2316.8	12.6459
2317.03	13.6298
2317.27	22.4012
2317.5	21.4994
2317.73	16.5755
2317.97	12.6478
2318.2	1.98608
2318.43	21.2451
2318.67	16.364
2318.9	14.3849
2319.13	18.2081
2319.37	25.9024
2319.6	14.322
2319.84	15.2954
2320.07	14.3291
2320.3	21.1111
2320.54	13.4379
2320.77	22.1786
2321	19.3428
2321.23	10.7207
2321.47	19.5029
2321.7	21.5369
2321.94	22.5912
2322.17	16.8297
2322.4	24.5521
2322.64	24.5625
2322.87	20.7198
2323.1	18.8058
2323.33	21.7283
2323.57	24.6409
2323.8	13.0252
2324.03	27.5132
2324.27	16.805
2324.5	27.3351
2324.73	23.3525
2324.97	33.8938
2325.2	35.7578
2325.43	22.1731
2325.67	28.8618
2325.9	34.5794
2326.13	27.7505
2326.37	45.0408
2326.6	29.5323
2326.83	37.1699
2327.07	41.9356
2327.3	57.3006
2327.53	66.8938
2327.77	94.8562
2328	120.887
2328.23	158.487
2328.46	168.044
2328.7	154.458
2328.93	137.963
2329.16	82.0461
2329.4	55.0601
2329.63	42.5773
2329.86	37.7463
2330.09	29.0469
2330.33	37.6832
2330.56	38.6306
2330.79	23.2409
2331.03	18.4705
2331.26	13.7065
2331.49	25.344
2331.73	12.7492
2331.96	25.1987
2332.19	21.297
2332.42	8.73288
2332.66	7.72693
2332.89	24.0514
2333.12	7.64944
2333.36	23.0182
2333.59	7.5759
2333.82	14.2581
2334.05	19.9489
2334.29	20.855
2334.52	14.0873
2334.75	13.1111
2334.99	18.8633
2335.22	25.6023
2335.45	16.969
2335.68	12.1534
2335.92	13.0823
2336.15	12.097
2336.38	15.9276
2336.61	17.8371
2336.85	19.7433
2337.08	11.0755
2337.31	27.3918
2337.54	8.14148
2337.78	13.8926
2338.01	19.6433
2338.24	6.1756
2338.47	13.8731
2338.71	10.0363
2338.94	7.15137
2339.17	-0.548126
2339.41	13.8446
2339.64	10.9224
2339.87	20.4775
2340.1	12.7345
2340.34	9.78326
2340.57	6.81488
2340.8	20.1526
2341.03	8.51529
2341.27	4.58157
2341.5	21.7837
2341.73	10.2252
2341.96	19.4795
2342.2	12.8108
2342.43	9.2085
2342.66	11.9564
2342.89	11.581
2343.13	13.5201
2343.36	10.8159
2343.59	17.6891
2343.82	17.5607
2344.05	16.9785
2344.29	4.72397
2344.52	15.4299
2344.75	15.7387
2344.98	23.5642
2345.22	5.6192
2345.45	8.46884
2345.68	13.0782
2345.91	12.4659
2346.14	14.4175
2346.38	13.5025
2346.61	16.7342
2346.84	11.0509
2347.07	16.9265
2347.31	26.8747
2347.54	17.7475
2347.77	11.9403
2348	12.0759
2348.23	10.4743
2348.47	7.40137
2348.7	5.01532
2348.93	6.72086
2349.16	12.4717
2349.39	3.07605
2349.63	16.3381
2349.86	12.8392
2350.09	18.0335
2350.32	6.38867
2350.56	11.266
2350.79	20.959
2351.02	11.8972
2351.25	9.9332
2351.48	18.9767
2351.72	6.22855
2351.95	5.13382
2352.18	9.42322
2352.41	11.4276
2352.64	11.1371
2352.88	12.5114
2353.11	7.88098
2353.34	12.4941
2353.57	5.48761
2353.8	18.0752
2354.03	17.8648
2354.27	5.24667
2354.5	11.5151
2354.73	6.28717
2354.96	9.59265
2355.19	6.83511
2355.43	14.2261
2355.66	6.85086
2355.89	8.2037
2356.12	1.51913
2356.35	15.1608
2356.59	23.7618
2356.82	8.17575
2357.05	11.185
2357.28	4.09543
2357.51	3.41998
2357.74	7.25711
2357.98	2.62296
2358.21	10.0918
2358.44	14.4393
2358.67	15.2687
2358.9	12.2628
2359.13	9.15506
2359.37	10.3949
2359.6	10.8918
2359.83	4.17563
2360.06	7.26743
2360.29	5.46942
2360.52	8.67969
2360.75	10.5449
2360.99	5.10739
2361.22	3.17651
2361.45	1.41721
2361.68	0.316467
2361.91	13.1931
2362.14	15.5978
2362.38	8.9032
2362.61	4.5834
2362.84	7.84344
2363.07	10.3753
2363.3	3.66095
2363.53	-0.214844
2363.77	-2.20651
2364	4.45044
2364.23	16.8204
2364.46	13.6882
2364.69	8.00107
2364.92	3.79044
2365.15	1.4859
2365.27	4.2854
2365.51	9.7583
2365.74	15.3203
2365.98	10.5739
2366.21	-4.53949
2366.45	24.794
2366.68	1.3606
2366.92	24.2371
2367.15	7.25821
2367.38	7.22888
2367.62	2.48358
2367.85	2.38647
2368.09	5.15549
2368.32	7.93869
2368.56	11.6617
2368.79	4.05011
2369.02	1.15182
2369.26	-2.6929
2369.49	9.49359
2369.73	5.63763
2369.96	10.2706
2370.2	5.48624
2370.43	10.1423
2370.66	9.13174
2370.9	23.206
2371.13	19.3929
2371.37	3.34668
2371.6	9.90244
2371.83	6.0704
2372.07	18.2591
2372.3	12.5523
2372.54	0.268066
2372.77	-3.52539
2373	10.573
2373.24	3.96283
2373.47	1.08261
2373.71	5.71152
2373.94	4.71201
2374.17	7.47845
2374.41	-6.67996
2374.64	0.779602
2374.88	0.710999
2375.11	8.16769
2375.34	-2.20248
2375.58	-1.28827
2375.81	-1.31134
2376.05	2.41
2376.28	-5.16428
2376.51	1.35757
2376.75	3.20413
2376.98	4.11502
2377.22	5.01556
2377.45	7.77209
2377.68	3.95358
2377.92	3.90128
2378.15	1.02316
2378.39	6.58472
2378.62	-2.86014
2378.85	1.73947
2379.09	12.8704
2379.32	11.8281
2379.56	-1.34836
2379.79	10.7878
2380.02	5.14114
2380.26	1.36859
2380.49	18.1962
2380.72	7.88315
2380.96	0.386963
2381.19	11.6232
2381.42	1.33691
2381.66	5.0672
2381.89	3.17133
2382.13	-5.26447
2382.36	5.94556
2382.59	1.23389
2382.83	5.89005
2383.06	4.94095
2383.29	1.18378
2383.53	7.72083
2383.76	1.16754
2384	-7.25436
2384.23	0.21283
2384.46	-7.29395
2384.7	6.71304
2384.93	-5.50174
2385.16	-7.42227
2385.4	2.79761
2385.63	9.25052
2385.86	5.42661
2386.1	-0.25116
2386.33	-0.357697
2386.56	0.479248
2386.8	-4.27679
2387.03	-4.38947
2387.26	-4.46378
2387.5	-1.68176
2387.73	10.4499
2387.97	6.71649
2388.2	7.63757
2388.43	-10.1093
2388.67	14.1096
2388.9	11.2714
2389.13	-5.51797
2389.36	5.65237
2389.6	0.972992
2389.83	9.35776
2390.06	-9.29443
2390.3	-3.69016
2390.53	-1.80936
2390.77	3.80591
2391	-9.24185
2391.23	4.75336
2391.47	9.40176
2391.7	10.3094
2391.93	12.1426
2392.16	17.7039
2392.4	10.1861
2392.63	-2.97528
2392.86	5.29117
2393.1	-8.79172
2393.33	5.0394
2393.56	7.75815
2393.8	-1.60934
2394.03	11.396
2394.26	10.3662
2394.5	6.56073
2394.73	3.80948
2394.96	4.79364
2395.2	-3.46103
2395.43	7.48032
2395.66	13.941
2395.9	13.0056
2396.13	10.4728
2396.36	2.18182
2396.59	0.980042
2396.83	7.46808
2397.06	7.4447
2397.29	-0.0179138
2397.53	9.31317
2397.76	13.0419
2397.99	-0.0337524
2398.23	3.68307
2398.46	-1.91809
2398.69	5.53491
2398.92	14.8542
2399.16	6.47211
2399.39	-1.91983
2399.62	2.74374
2399.86	14.8611
2400.09	0.858032
2400.32	1.77042
2400.56	2.67258
2400.79	-1.08835
2401.02	-1.11447
2401.25	15.6403
2401.49	3.49658
2401.72	3.465
2401.95	4.34793
2402.18	12.6574
2402.42	12.5464
2402.65	5.88196
2402.88	-1.72165
2403.12	-1.01617
2403.35	4.16592
2403.58	-0.51004
2403.81	-0.675476
2404.05	7.02567
2404.28	6.03583
2404.51	10.6923
2404.74	19.27
2404.98	3.49594
2405.21	9.06363
2405.44	1.62012
2405.68	-3.96667
2405.91	-4.88025
2406.14	12.8608
2406.37	6.35254
2406.61	11.0178
2406.84	-2.97552
2407.07	0.746979
2407.3	-7.65451
2407.54	2.59381
2407.77	-5.80951
2408	3.5061
2408.23	10.9592
2408.47	-4.90341
2408.7	14.6556
2408.93	9.03033
2409.16	12.734
2409.4	-5.90488
2409.63	8.09531
2409.86	4.3689
2410.09	-6.8244
2410.33	2.49365
2410.56	-10.5524
2410.79	7.17764
2411.02	3.44019
2411.26	6.22775
2411.49	-3.07663
2411.72	4.43414
2411.95	4.47916
2412.19	12.903
2412.42	-8.53455
2412.65	5.50436
2412.88	9.2652
2413.11	1.80655
2413.35	12.9994
2413.58	9.23822
2413.81	-0.111206
2414.04	-5.71243
2414.28	3.60242
2414.51	-0.168976
2414.74	4.43381
2414.97	-1.21472
2415.21	3.40576
2415.44	3.36752
2415.67	3.30783
2415.9	-3.26312
2416.13	-7.00851
2416.37	-5.13684
2416.6	0.484619
2416.83	5.19604
2417.06	3.37955
2417.29	9.06161
2417.53	7.22046
2417.76	0.700897
2417.99	-0.171783
2418.22	3.60364
2418.45	8.38184
2418.69	1.95401
2418.92	7.63794
2419.15	-0.706512
2419.38	4.9494
2419.61	2.19
2419.85	0.346863
2420.08	19.9709
2420.31	14.3691
2420.54	12.5239
2420.78	4.17276
2421.01	9.82114
2421.24	20.8576
2421.47	5.73065
2421.7	9.4205
2421.94	1.93921
2422.17	3.82904
2422.4	-2.65344
2422.63	9.58942
2422.86	3.1799
2423.09	9.90509
2423.33	0.698669
2423.56	11.87
2423.79	0.484192
2424.02	-5.03787
2424.25	-0.30426
2424.48	0.694427
2424.72	12.9308
2424.95	-6.66922
2425.18	10.2511
2425.41	10.3131
2425.64	0.998993
2425.88	3.862
2426.11	-0.769562
2426.34	-4.46042
2426.57	12.4623
2426.8	6.86435
2427.03	3.14227
2427.27	4.10846
2427.5	7.8811
2427.73	5.06723
2427.96	3.17157
2428.19	8.76593
2428.43	-3.46429
2428.66	6.83578
2428.89	3.07288
2429.12	9.62033
2429.35	7.73093
2429.58	7.72348
2429.81	5.84048
2430.05	2.08218
2430.28	4.88876
2430.51	9.59656
2430.74	12.415
2430.97	9.63525
2431.2	-2.50488
2431.44	2.27844
2431.67	4.26016
2431.9	6.23297
2432.13	1.62643
2432.36	7.3432
2432.59	11.1774
2432.82	5.60577
2433.05	14.121
2433.29	1.93311
2433.52	15.0875
2433.75	12.2792
2433.98	0.0866394
2434.21	11.3809
2434.44	2.9213
2434.68	8.62262
2434.91	3.03671
2435.14	8.73386
2435.37	8.78625
2435.6	-0.555328
2435.83	6.11124
2436.06	4.30667
2436.29	8.14301
2436.53	10.9751
2436.76	2.50287
2436.99	0.63205
2437.22	4.41556
2437.45	-3.12515
2437.68	7.17352
2437.91	6.21844
2438.14	8.11713
2438.38	10.0536
2438.61	-7.79477
2438.84	-1.14038
2439.07	1.77182
2439.3	2.78372
2439.53	14.1764
2439.76	2.92615
2439.99	12.4387
2440.23	-3.52609
2440.46	7.87094
2440.69	7.90768
2440.92	7.92203
2441.15	8.85458
2441.38	12.5868
2441.61	19.2024
2441.84	15.4663
2442.07	4.18997
2442.3	1.41397
2442.53	16.594
2442.77	3.41547
2443	3.46155
2443.23	6.32526
2443.46	12.0458
2443.69	-1.13495
2443.92	14.9977
2444.15	7.46432
2444.38	5.60678
2444.61	12.271
2444.84	15.1594
2445.08	19.9482
2445.31	16.2128
2445.54	6.78207
2445.77	2.06827
2446	11.5793
2446.23	1.23032
2446.46	2.25043
2446.69	-1.47409
2446.92	12.8109
2447.15	8.13336
2447.38	14.8269
2447.61	0.627014
2447.85	8.22284
2448.08	8.19925
2448.31	-4.18085
2448.54	2.42557
2448.77	4.31927
2449	31.8332
2449.23	4.34573
2449.46	20.5252
2449.69	2.56323
2449.92	6.40726
2450.15	0.770691
2450.38	17.9483
2450.61	15.2169
2450.85	6.81366
2451.08	10.6982
2451.31	-3.53342
2451.54	13.5996
2451.77	13.6348
2452	9.8725
2452.23	7.04431
2452.46	0.387299
2452.69	10.8073
2452.92	8.8537
2453.15	1.20804
2453.38	18.2988
2453.61	1.18369
2453.84	-3.55716
2454.07	12.6407
2454.3	8.88773
2454.53	9.90298
2454.76	13.7805
2455	1.49142
2455.22	20.6197
2455.46	9.26123
2455.69	-1.17795
2455.92	6.49924
2456.15	13.2606
2456.38	5.71558
2456.61	4.82489
2456.84	9.63776
2457.07	4.88815
2457.3	12.5188
2457.53	7.76181
2457.76	16.3545
2457.99	4.91681
2458.22	0.148438
2458.45	13.4849
2458.68	15.4034
2458.91	17.3377
2459.14	10.7036
2459.37	-4.51498
2459.6	4.11426
2459.83	7.02051
2460.06	7.05887
2460.29	0.417908
2460.52	9.99365
2460.75	12.8732
2460.98	13.834
2461.21	8.10077
2461.44	-4.33069
2461.67	4.22763
2461.9	9.95947
2462.14	17.6243
2462.36	5.20984
2462.59	4.29526
2462.83	9.98111
2463.05	7.08221
2463.29	14.8672
2463.52	8.617
2463.74	1.6109
2463.98	6.15695
2464.21	9.89404
2464.43	7.95377
2464.67	15.6124
2464.9	-1.60007
2465.12	14.6926
2465.36	2.25082
2465.59	21.3665
2465.81	15.5698
2466.05	12.67
2466.28	9.76303
2466.5	4.01151
2466.74	2.10114
2466.97	-6.4595
2467.19	11.8185
2467.43	15.612
2467.65	11.676
2467.88	8.70038
2468.12	19.1344
2468.34	-0.0457458
2468.57	21.937
2468.8	5.67261
2469.03	14.3022
2469.26	9.55386
2469.49	4.7995
2469.72	7.69696
2469.95	9.64444
2470.18	15.4198
2470.41	22.1039
2470.64	7.75787
2470.87	9.72134
2471.1	3.06287
2471.33	7.91351
2471.56	9.92429
2471.79	11.932
2472.02	21.589
2472.25	18.7581
2472.48	9.18875
2472.71	12.0863
2472.94	5.42319
2473.17	-1.26465
2473.4	8.11014
2473.63	12.9247
2473.86	13.1055
2474.09	18.42
2474.32	16.8619
2474.55	20.9182
2474.78	8.45224
2475.01	16.2938
2475.24	17.2478
2475.47	8.75424
2475.7	29.014
2475.92	7.06317
2476.15	16.7185
2476.38	5.28894
2476.61	19.6928
2476.84	6.2915
2477.07	24.4437
2477.3	18.6288
2477.53	8.87088
2477.76	17.3691
2477.99	18.0338
2478.22	26.073
2478.45	2.45178
2478.68	4.45517
2478.91	15.9012
2479.14	19.4031
2479.37	11.3241
2479.6	2.61938
2479.83	22.0292
2480.05	12.3463
2480.28	6.03098
2480.51	21.5855
2480.74	5.06549
2480.97	14.2613
2481.2	7.89615
2481.43	3.151
2481.66	6.88998
2481.89	6.90024
2482.12	19.3646
2482.35	4.02588
2482.58	22.204
2482.81	13.5485
2483.04	7.784
2483.27	14.4737
2483.49	14.456
2483.72	15.3904
2483.95	8.64789
2484.18	10.5384
2484.41	10.5368
2484.64	10.5403
2484.87	10.5378
2485.1	7.65097
2485.33	6.70663
2485.56	5.78574
2485.78	2.93311
2486.02	10.5921
2486.24	13.451
2486.47	13.4262
2486.7	8.59753
2486.93	16.1999
2487.16	4.63358
2487.39	13.1916
2487.62	14.1157
2487.85	5.48755
2488.08	5.46423
2488.31	8.28873
2488.53	5.33167
2488.76	6.19296
2488.99	9.99765
2489.22	6.15594
2489.45	21.4568
2489.68	-1.48416
2489.91	6.18091
2490.14	11.9268
2490.37	-2.42191
2490.59	24.3561
2490.82	6.17563
2491.05	-3.40884
2491.28	8.98712
2491.51	14.6755
2491.74	8.88052
2491.97	3.07053
2492.2	11.5534
2492.43	10.4514
2492.65	5.54648
2492.88	9.21381
2493.11	8.07504
2493.34	8.93399
2493.57	6.07703
2493.8	7.9888
2494.03	6.31561
2494.25	7.83728
2494.48	9.80557
2494.71	12.5311
2494.94	7.79071
2495.17	13.5301
2495.4	11.4412
2495.63	9.04657
2495.86	11.8066
2496.08	11.7897
2496.31	8.76901
2496.54	7.7037
2496.77	12.3985
2497	14.2244
2497.23	15.0598
2497.46	13.9499
2497.69	7.24905
2497.91	12.9977
2498.14	13.0498
2498.37	8.34158
2498.6	18.8688
2498.83	1.78903
2499.06	12.3094
2499.28	16.1492
2499.51	9.47833
2499.74	6.56757
2499.97	1.71695
2500.2	-4.17017
2500.43	8.08588
2500.66	7.98599
2500.88	3.14005
2501.11	4.94595
2501.34	7.71136
2501.57	16.1914
2501.8	18.9779
2502.03	9.42673
2502.25	11.2856
2502.48	19.8015
2502.71	9.3049
2502.94	8.32547
2503.17	9.30127
2503.4	17.8151
2503.62	19.6666
2503.85	5.37161
2504.08	17.6447
2504.31	-1.38315
2504.54	10.893
2504.77	21.2187
2504.99	8.79428
2505.22	9.70908
2505.45	10.7144
2505.68	2.29343
2505.91	15.7592
2506.14	12.196
2506.36	0.962463
2506.59	10.3074
2506.82	11.0414
2507.05	16.7175
2507.28	14.816
2507.5	16.7268
2507.73	8.20554
2507.96	20.5679
2508.19	0.646515
2508.42	5.39749
2508.64	4.44101
2508.87	22.4579
2509.1	-1.30576
2509.33	10.0417
2509.56	-3.32275
2509.79	17.4622
2510.01	9.77786
2510.24	14.401
2510.47	4.78198
2510.7	3.67731
2510.92	4.45032
2511.15	14.7161
2511.38	10.8194
2511.61	-0.613464
2511.84	-2.55508
2512.06	16.3262
2512.29	16.3125
2512.52	15.3604
2512.75	5.90225
2512.98	14.4131
2513.2	11.6216
2513.43	-0.609161
2513.66	8.91351
2513.89	4.2034
2514.11	14.567
2514.34	6.01471
2514.57	5.97592
2514.8	6.85797
2515.03	19.0381
2515.26	8.52676
2515.48	12.1929
2515.71	22.4614
2515.94	7.2261
2516.17	8.03067
2516.39	5.05911
2516.62	7.7905
2516.85	15.2407
2517.08	8.54803
2517.3	15.0526
2517.53	1.78961
2517.76	4.55646
2517.99	6.37607
2518.21	10.0743
2518.44	5.28421
2518.67	5.25269
2518.9	9.94986
2519.13	8.07587
2519.35	6.21091
2519.58	15.6504
2519.81	3.47678
2520.04	13.9021
2520.26	-1.10654
2520.49	0.837677
2520.72	12.213
2520.95	-1.90558
2521.17	9.40714
2521.4	0.911285
2521.63	7.49017
2521.86	11.1737
2522.08	23.2663
2522.31	5.32135
2522.54	1.50101
2522.77	4.29611
2522.99	8.9751
2523.22	10.8326
2523.45	5.17029
2523.68	23.0573
2523.9	1.3833
2524.13	6.98056
2524.36	16.3599
2524.58	5.03992
2524.81	17.2407
2525.04	6.82486
2525.27	8.58542
2525.49	9.37943
2525.72	-0.171417
2525.95	-0.277679
2526.18	9.00931
2526.4	5.15414
2526.63	6.9527
2526.86	1.30655
2527.09	4.0939
2527.31	12.5152
2527.54	15.3202
2527.77	4.07056
2527.99	5.02957
2528.22	4.12372
2528.45	-3.3595
2528.68	4.18048
2528.9	1.40689
2529.13	6.14325
2529.36	10.8523
2529.58	0.520203
2529.81	8.95697
2530.04	0.497437
2530.27	2.36252
2530.49	19.2303
2530.72	13.5451
2530.95	0.345062
2531.18	-1.5683
2531.4	3.07373
2531.63	-0.738281
2531.86	6.71149
2532.08	9.4848
2532.31	6.59802
2532.54	17.7492
2532.76	3.64014
2532.99	8.29272
2533.22	-3.892
2533.45	2.68759
2533.67	7.40329
2533.9	6.51691
2534.13	3.72333
2534.35	1.8378
2534.58	17.7014
2534.81	-3.91226
2535.03	17.5907
2535.26	19.4318
2535.49	2.55554
2535.71	2.54803
2535.94	3.47791
2536.17	10.961
2536.4	-0.306885
2536.62	3.39023
2536.85	1.45908
2537.08	9.84857
2537.3	15.4236
2537.53	-1.48224
2537.76	12.5
2537.98	3.07855
2538.21	9.5466
2538.44	7.59482
2538.66	13.1294
2538.89	8.37482
2539.12	1.73544
2539.34	6.37921
2539.57	0.713776
2539.8	16.5471
2540.02	8.09857
2540.25	11.8068
2540.48	14.5922
2540.7	-5.95908
2540.93	14.6031
2541.16	-5.90274
2541.38	8.21295
2541.61	13.8795
2541.84	9.22678
2542.06	-1.96942
2542.29	13.015
2542.52	13.0388
2542.74	7.44348
2542.97	10.2677
2543.2	6.51254
2543.42	-0.0728455
2543.65	2.68497
2543.88	3.55594
2544.1	3.49435
2544.33	0.647888
2544.55	-11.5276
2544.78	4.36807
2545.01	16.5187
2545.23	6.24084
2545.46	-4.97101
2545.69	9.05005
2545.91	4.37598
2546.14	11.8107
2546.37	10.7581
2546.59	7.0033
2546.82	3.25357
2547.05	5.11795
2547.27	2.31754
2547.5	2.32599
2547.73	10.7499
2547.95	7.96515
2548.18	17.3193
2548.4	15.4636
2548.63	16.4374
2548.86	7.14084
2549.08	-0.299805
2549.31	6.2821
2549.54	11.0014
2549.76	31.6331
2549.99	4.58078
2550.21	-0.955536
2550.44	0.973846
2550.67	-2.72488
2550.89	7.60281
2551.12	10.4454
2551.34	14.2487
2551.57	13.3635
2551.8	-0.651611
2552.02	9.67654
2552.25	10.6217
2552.48	3.11121
2552.7	7.75595
2552.93	-0.716949
2553.15	2.05884
2553.38	8.58646
2553.61	9.50198
2553.83	-14.8615
2554.06	5.72864
2554.28	7.59915
2554.51	16.9729
2554.74	5.75305
2554.96	12.3331
2555.19	15.1859
2555.42	13.3808
2555.64	0.350983
2555.87	11.7022
2556.09	11.8027
2556.32	10.0198
2556.55	12.9261
2556.77	8.30838
2557	2.7244
2557.22	-0.0826416
2557.45	18.6891
2557.67	13.0698
2557.9	4.65289
2558.13	19.7019
2558.35	15.9499
2558.58	7.49799
2558.8	1.8558
2559.03	14.9878
2559.26	-2.87466
2559.48	10.2499
2559.71	13.9789
2559.93	2.68008
2560.16	20.4914
2560.39	5.45566
2560.61	7.33618
2560.84	5.46353
2561.06	16.7335
2561.29	12.9867
2561.51	19.5791
2561.74	14.9131
2561.96	0.856445
2562.19	16.8551
2562.42	2.81363
2562.64	6.6568
2562.87	7.70383
2563.09	15.329
2563.32	8.84531
2563.55	-7.05411
2563.77	13.7476
2564	-3.06982
2564.22	6.47223
2564.45	8.45044
2564.67	9.46045
2564.9	-0.868469
2565.12	6.68988
2565.35	1.03198
2565.58	1.00323
2565.8	7.58002
2566.03	1.91415
2566.25	13.2176
2566.48	0.0160522
2566.7	17.944
2566.93	6.65387
2567.15	3.83035
2567.38	1.93716
2567.61	3.80774
2567.83	7.5607
2568.06	17.9155
2568.28	9.42841
2568.51	10.3797
2568.73	-3.74918
2568.96	6.64014
2569.18	-3.72641
2569.41	1.9451
2569.63	0.10437
2569.86	17.1571
2570.08	5.89236
2570.31	-0.657379
2570.53	8.85248
2570.76	-7.11029
2570.99	7.17044
2571.21	12.0414
2571.44	4.61581
2571.66	11.3593
2571.89	13.3632
2572.11	3.99945
2572.34	8.81949
2572.56	19.3167
2572.79	2.3291
2573.01	7.11734
2573.24	7.17932
2573.46	-6.02844
2573.69	12.0045
2573.91	3.53015
2574.14	6.27951
2574.36	27.0674
2574.59	5.2002
2574.81	2.30054
2575.04	4.18295
2575.26	7.04184
2575.49	6.21921
2575.71	28.1411
2575.94	10.1743
2576.16	3.55783
2576.39	13.0698
2576.61	14.0586
2576.84	19.8098
2577.06	3.75208
2577.29	2.88721
2577.52	6.77689
2577.74	8.77115
2577.96	19.3201
2578.19	11.8112
2578.42	14.7422
2578.64	6.24084
2578.86	17.7309
2579.09	12.1233
2579.31	11.2819
2579.54	11.3707
2579.77	15.2379
2579.99	6.7095
2580.21	11.5172
2580.44	8.6702
2580.66	29.6499
2580.89	9.65762
2581.11	3.00763
2581.34	21.1407
2581.56	-0.739868
2581.79	3.13538
2582.01	4.10559
2582.24	6.95905
2582.46	18.3942
2582.69	26.0263
2582.91	4.12756
2583.14	16.5294
2583.36	19.4116
2583.59	19.4231
2583.81	18.4687
2584.04	8.91608
2584.26	1.29138
2584.49	1.34436
2584.71	19.5244
2584.94	0.50412
2585.16	7.28006
2585.38	11.199
2585.61	7.47
2585.83	1.84531
2586.06	21.0627
2586.28	28.7919
2586.51	6.88065
2586.73	12.6011
2586.96	17.5287
2587.18	32.9968
2587.41	15.9335
2587.63	16.1409
2587.86	22.0167
2588.08	15.4079
2588.3	17.4003
2588.53	4.9592
2588.75	20.04
2588.98	23.873
2589.2	12.6882
2589.43	8.85684
2589.65	14.6182
2589.88	14.612
2590.1	11.7248
2590.32	14.5936
2590.55	6.90512
2590.77	30.8858
2591	8.8024
2591.22	18.3948
2591.45	27.039
2591.67	8.8414
2591.9	19.4354
2592.12	19.4752
2592.34	9.93158
2592.57	19.5949
2592.79	16.7827
2593.02	19.7479
2593.24	13.1313
2593.47	15.0993
2593.69	5.54129
2593.91	11.3811
2594.14	16.2856
2594.36	6.74518
2594.59	20.2632
2594.81	18.3616
2595.04	22.2118
2595.26	10.6776
2595.48	4.91708
2595.71	15.5266
2595.93	8.80847
2596.16	13.6602
2596.38	13.8495
2596.6	14.1108
2596.83	10.494
2597.05	20.3918
2597.28	10.378
2597.5	14.4262
2597.73	16.3159
2597.95	16.1594
2598.17	17.0083
2598.4	9.21173
2598.62	16.9683
2598.85	5.46649
2599.07	13.3009
2599.29	16.2845
2599.52	16.3585
2599.74	8.70947
2599.97	12.6155
2600.19	9.60507
2600.41	8.51706
2600.64	2.90726
2600.86	4.00186
2601.09	4.22812
2601.31	5.28271
2601.53	12.119
2601.76	22.8023
2601.98	13.1424
2602.21	23.7779
2602.43	3.43298
2602.65	14.0556
2602.88	13.0691
2603.1	6.28394
2603.33	14.0359
2603.55	12.1372
2603.77	9.23462
2604	13.0827
2604.22	19.834
2604.45	13.0708
2604.67	15.0319
2604.89	13.1339
2605.12	7.35995
2605.34	22.8733
2605.56	13.2054
2605.79	16.1155
2606.01	11.2672
2606.24	22.873
2606.46	13.1857
2606.68	15.1216
2606.91	19.9843
2607.13	8.41788
2607.35	8.49188
2607.58	16.3307
2607.8	21.2783
2608.02	8.77646
2608.25	6.94955
2608.47	6.04956
2608.7	16.7858
2608.92	16.8345
2609.14	18.805
2609.37	9.11737
2609.59	16.8929
2609.81	15.9414
2610.04	12.0941
2610.26	9.2077
2610.48	17.9464
2610.71	16.0171
2610.93	10.1933
2611.15	20.8666
2611.38	33.4641
2611.6	16.9217
2611.83	9.09927
2612.05	17.759
2612.27	26.4379
2612.5	5.05963
2612.72	11.8517
2612.94	6.02023
2613.17	12.7797
2613.39	17.6242
2613.61	13.7753
2613.84	21.6095
2614.06	14.9204
2614.28	25.7186
2614.51	17.089
2614.73	16.2416
2614.95	22.2075
2615.18	2.83557
2615.4	16.5162
2615.62	11.6843
2615.85	10.7227
2616.07	9.79123
2616.29	9.82339
2616.52	19.5861
2616.74	22.5322
2616.96	24.5047
2617.19	9.92368
2617.41	22.5995
2617.63	20.6509
2617.86	14.8403
2618.08	5.20123
2618.3	13.9521
2618.53	20.7281
2618.75	9.94849
2618.97	10.8269
2619.19	13.6405
2619.42	16.453
2619.64	16.3294
2619.87	23.9302
2620.09	16.9733
2620.31	14.9538
2620.53	13.9398
2620.76	19.7643
2620.98	20.8347
2621.2	31.7356
2621.43	23.064
2621.65	16.3385
2621.87	14.4895
2622.1	9.70834
2622.32	15.5971
2622.54	2.97922
2622.76	21.4724
2622.99	17.5118
2623.21	25.2938
2623.43	13.6341
2623.66	13.6641
2623.88	29.2656
2624.1	7.84595
2624.32	20.5004
2624.55	17.5621
2624.77	21.4546
2624.99	11.739
2625.22	21.4916
2625.44	11.7701
2625.66	23.4936
2625.89	15.7336
2626.11	15.7677
2626.33	19.7013
2626.55	5.11688
2626.78	25.6256
2627	20.7862
2627.22	13.9675
2627.45	15.9146
2627.67	19.8285
2627.89	21.7832
2628.11	6.16995
2628.34	8.09436
2628.56	12.925
2628.78	15.7854
2629	10.8526
2629.23	10.8234
2629.45	13.7397
2629.67	15.6925
2629.9	10.8321
2630.12	15.7226
2630.34	28.4105
2630.56	8.93417
2630.79	9.93185
2631.01	16.7975
2631.23	12.9501
2631.45	13.9381
2631.68	15.8851
2631.9	18.8133
2632.12	17.8174
2632.34	20.7095
2632.57	20.7025
2632.79	8.99451
2633.01	12.892
2633.23	18.7307
2633.46	8.95975
2633.68	17.7014
2633.9	9.83047
2634.12	18.5192
2634.35	14.5074
2634.57	16.3313
2634.79	19.1308
2635.01	28.7469
2635.24	25.7131
2635.46	22.7717
2635.68	24.8786
2635.9	15.3373
2636.13	15.4606
2636.35	16.5371
2636.57	9.79425
2636.79	13.6094
2637.02	19.2901
2637.24	15.3156
2637.46	10.2326
2637.68	3.25491
2637.91	14.0014
2638.13	14.0433
2638.35	10.1636
2638.57	17.968
2638.79	27.7257
2639.02	25.8098
2639.24	8.31378
2639.46	14.1933
2639.68	22.0026
2639.91	5.48322
2640.13	9.45721
2640.35	16.364
2640.57	21.3371
2640.8	24.2953
2641.02	23.2598
2641.24	33.6514
2641.46	11.7088
2641.68	11.1571
2641.91	9.86862
2642.13	18.5363
2642.35	0.0894775
2642.57	20.4967
2642.79	7.05606
2643.02	4.36633
2643.24	16.9713
2643.46	17.7988
2643.68	21.6602
2643.9	13.8164
2644.13	15.653
2644.35	13.6086
2644.57	24.198
2644.79	11.5549
2645.01	16.3622
2645.24	17.289
2645.46	22.0879
2645.68	6.53806
2645.9	13.2656
2646.13	5.48294
2646.35	2.56073
2646.57	18.9998
2646.79	19.9384
2647.01	14.098
2647.23	-2.40237
2647.46	21.7346
2647.68	12.9344
2647.9	7.96173
2648.12	14.5772
2648.34	14.4512
2648.57	15.3206
2648.79	12.355
2649.01	19.078
2649.23	23.8654
2649.45	27.6805
2649.67	8.32813
2649.9	14.0676
2650.12	23.668
2650.34	19.7875
2650.56	11.1118
2650.78	11.133
2651	15.9628
2651.23	12.9696
2651.45	17.6588
2651.67	24.3471
2651.89	6.94965
2652.11	1.12311
2652.34	14.5826
2652.56	9.72604
2652.78	19.3552
2653	5.84805
2653.22	9.68173
2653.44	8.6795
2653.66	12.4782
2653.89	3.75153
2654.11	6.60526
2654.33	18.1181
2654.55	1.66769
2654.77	4.45663
2655	-4.30453
2655.22	16.8159
2655.44	11.9659
2655.66	14.8287
2655.88	13.8439
2656.1	9.99628
2656.32	8.11871
2656.55	11.0655
2656.77	9.17688
2656.99	12.0837
2657.21	6.3132
2657.43	15.9406
2657.65	13.0548
2657.87	7.26828
2658.1	2.40634
2658.32	12.9134
2658.54	14.728
2658.76	15.5756
2658.98	9.6832
2659.2	17.2646
2659.42	-2.1011
2659.65	4.51331
2659.87	14.0584
2660.09	18.8383
2660.31	1.5694
2660.53	13.1147
2660.75	-0.354675
2660.97	14.0086
2661.19	18.7612
2661.42	-0.507935
2661.64	23.3794
2661.86	20.3451
2662.08	8.67389
2662.3	14.2632
2662.52	9.3063
2662.74	6.26559
2662.96	10.8778
2663.19	2.15094
2663.41	18.3392
2663.63	10.6593
2663.85	14.4647
2664.07	16.3358
2664.29	11.5127
2664.51	9.56274
2664.73	8.57379
2664.95	4.72906
2665.18	4.71753
2665.4	8.53122
2665.62	33.3654
2665.84	13.2614
2666.06	21.8271
2666.28	-0.192474
2666.5	5.50052
2666.72	12.1518
2666.94	1.61435
2667.16	13.0277
2667.39	-7.09824
2667.61	7.15314
2667.83	10.8901
2668.05	12.7125
2668.27	12.5998
2668.49	22.0371
2668.71	7.64771
2668.93	15.2338
2669.15	19.9926
2669.38	11.4134
2669.6	14.2791
2669.82	4.74991
2670.04	11.4355
2670.26	0.0105896
2670.48	13.3805
2670.7	4.78522
2670.92	0.925171
2671.14	5.62674
2671.36	11.2806
2671.58	13.1278
2671.8	1.64771
2672.02	19.6766
2672.25	13.8631
2672.47	-1.47211
2672.69	14.6107
2672.91	4.9834
2673.13	0.113983
2673.35	13.3279
2673.57	9.43289
2673.79	15.08
2674.01	9.43842
2674.23	5.66608
2674.45	-1.9592
2674.67	5.63647
2674.89	2.82022
2675.11	13.468
2675.34	5.13263
2675.56	1.35437
2675.78	9.56378
2676	4.38724
2676.22	0.494995
2676.44	8.96027
2676.66	-2.50043
2676.88	16.4296
2677.1	2.14444
2677.32	10.6422
2677.54	8.69925
2677.76	15.291
2677.98	11.4427
2678.2	16.1279
2678.42	-6.69186
2678.65	18.8523
2678.87	16.895
2679.09	10.1944
2679.31	6.35971
2679.53	3.51172
2679.75	15.8403
2679.97	13.9243
2680.19	-4.14731
2680.41	2.43121
2680.63	4.31409
2680.85	0.548004
2681.07	4.38028
2681.29	2.50394
2681.51	5.34265
2681.73	3.43579
2681.95	4.36362
2682.17	7.13803
2682.39	5.12527
2682.61	11.5912
2682.83	11.4752
2683.05	-1.55295
2683.27	3.80606
2683.49	5.45764
2683.71	19.5682
2683.93	-6.02887
2684.15	10.5445
2684.37	3.60242
2684.59	4.78281
2684.81	3.04553
2685.03	6.24033
2685.25	4.87646
2685.48	9.90808
2685.7	4.84473
2685.92	7.61169
2686.14	8.32382
2686.36	7.19562
2686.58	-2.48453
2686.8	9.41974
2687.02	8.19778
2687.24	3.66595
2687.46	13.0103
2687.68	6.76379
2687.9	7.41214
2688.12	-2.29187
2688.34	3.11563
2688.56	-2.7919
2688.78	2.6091
2689	2.50998
2689.22	0.379456
2689.44	4.93689
2689.66	7.61588
2689.88	-1.91812
2690.1	-2.94031
2690.32	2.33417
2690.54	11.985
2690.76	11.0158
2690.98	-1.59097
2691.2	9.56122
2691.42	-4.45251
2691.64	7.94742
2691.86	5.68021
2692.08	-0.566772
2692.3	5.6088
2692.52	-3.23749
2692.74	4.25787
2692.96	2.9086
2693.18	-0.541992
2693.4	-2.1478
2693.62	5.19931
2693.84	4.55014
2694.06	2.22641
2694.28	0.362579
2694.49	4.17755
2694.71	-4.03775
2694.93	7.22351
2695.15	5.76651
2695.37	3.20926
2695.59	6.38458
2695.81	6.21667
2696.03	5.34149
2696.25	-0.320251
2696.47	8.62408
2696.69	10.5125
2696.91	5.47379
2697.13	4.6478
2697.35	10.997
2697.57	3.01251
2697.79	-5.81277
2698.01	-0.0780334
2698.23	5.47702
2698.45	1.25214
2698.67	-3.52338
2698.89	-0.465454
2699.11	1.31506
2699.33	5.07101
2699.55	1.98584
2699.77	1.09888
2699.99	-2.94171
2700.21	2.71487
2700.43	-3.34332
2700.64	-3.27765
2700.86	-4.8923
2701.08	-6.95667
2701.3	-2.13742
2701.52	0.520294
2701.74	5.59155
2701.96	3.91879
2702.18	-2.03665
2702.4	1.73209
2702.62	4.2814
2702.84	0.917542
2703.06	2.04129
2703.28	-3.6496
2703.5	-5.74893
2703.72	-2.56662
2703.94	7.79767
2704.15	6.58557
2704.37	1.25684
2704.59	7.32156
2704.81	-0.837128
2705.03	-3.43805
2705.25	-7.90793
2705.45	10.4627
2705.67	-1.77582
2705.9	-3.65506
2706.12	-3.66669
2706.34	-2.7504
2706.56	0.0519714
2706.78	8.5144
2707.01	-7.44513
2707.23	7.57553
2707.45	-3.74179
2707.67	9.34766
2707.9	10.2136
2708.12	-10.5219
2708.34	3.53922
2708.56	-2.9989
2708.78	16.7477
2709.01	0.808746
2709.23	-1.04474
2709.45	5.5531
2709.67	10.2709
2709.89	0.894592
2710.12	11.2413
2710.34	2.78864
2710.56	11.245
2710.78	12.1811
2711	-6.64365
2711.23	4.56622
2711.45	-5.84286
2711.67	-2.20682
2711.89	0.5271
2712.11	12.6442
2712.34	6.93066
2712.56	8.67966
2712.78	-9.21628
2713	5.79062
2713.22	7.69986
2713.45	-0.68158
2713.67	2.20236
2713.89	-2.39456
2714.11	-1.32059
2714.33	8.17981
2714.56	6.39371
2714.78	2.7037
2715	4.62814
2715.22	-6.63431
2715.44	14.0424
2715.66	-1.94418
2715.89	2.68738
2716.11	-3.04172
2716.33	7.22964
2716.55	-1.27164
2716.77	7.1423
2716.99	-2.28577
2717.22	2.37726
2717.44	-6.09232
2717.66	4.23718
2717.88	2.37872
2718.1	-2.29507
2718.33	-4.1405
2718.55	-0.341064
2718.77	14.7427
2718.99	2.59268
2719.21	11.125
2719.43	3.69025
2719.66	2.84656
2719.88	-1.75491
2720.1	-10.1329
2720.32	6.86957
2720.54	-0.619263
2720.76	0.35965
2720.98	-3.3804
2721.21	-10.9037
2721.43	-4.3349
2721.65	6.90436
2721.87	4.96854
2722.09	5.87634
2722.32	6.75986
2722.54	-5.53424
2722.76	-4.64066
2722.98	2.85013
2723.2	7.5369
2723.42	-1.87576
2723.64	1.92679
2723.86	1.99222
2724.09	4.88522
2724.31	-3.52454
2724.53	1.24966
2724.75	-7.1875
2724.97	14.4744
2725.19	4.10947
2725.42	14.4552
2725.64	-9.14676
2725.86	10.5652
2726.08	0.168091
2726.3	11.4405
2726.52	2.01318
2726.74	6.72046
2726.96	2.02591
2727.19	-9.25323
2727.41	6.7767
2727.63	1.15198
2727.85	7.77301
2728.07	-1.61581
2728.29	2.18082
2728.51	12.5729
2728.74	12.5961
2728.96	-1.51627
2729.18	2.21432
2729.4	-14.7267
2729.62	-8.09058
2729.84	-3.33578
2730.06	-0.451111
2730.28	11.8919
2730.51	-2.16089
2730.73	-3.96814
2730.95	9.31183
2731.17	-0.0619812
2731.39	-0.0370483
2731.61	9.41333
2731.83	9.40384
2732.05	-1.94763
2732.27	7.46533
2732.49	-2.95285
2732.72	6.44052
2732.94	2.61331
2733.16	0.64505
2733.38	0.584442
2733.6	-0.407349
2733.82	13.7043
2734.04	7.07761
2734.26	2.35464
2734.48	1.43497
2734.71	6.20892
2734.93	1.58401
2735.15	-1.15475
2735.37	-2.96005
2735.59	-4.76642
2735.81	-4.69122
2736.03	8.58759
2736.25	6.73184
2736.47	9.57773
2736.69	0.135895
2736.91	0.159729
2737.14	14.3534
2737.36	2.07117
2737.58	-7.38885
2737.8	2.0462
2738.02	3.89813
2738.24	1.03641
2738.46	-5.56583
2738.68	1.08582
2738.9	3.03976
2739.12	2.14157
2739.34	0.237885
2739.56	6.8139
2739.79	-7.40649
2740.01	10.5616
2740.23	1.98495
2740.45	-6.66568
2740.67	-0.247314
2740.89	-6.86774
2741.11	-4.00702
2741.33	-0.0741882
2741.55	-1.86288
2741.77	5.75534
2741.99	3.96548
2742.21	15.3923
2742.43	1.25723
2742.65	3.20596
2742.88	4.21677
2743.1	0.50766
2743.32	-5.08914
2743.54	4.47119
2743.76	-8.70798
2743.98	7.50409
2744.2	5.70691
2744.42	-2.7594
2744.64	9.61658
2744.86	7.74222
2745.08	9.63965
2745.3	-3.64001
2745.52	-0.804962
2745.74	12.3897
2745.96	-8.5253
2746.18	13.2193
2746.4	-7.6864
2746.62	0.766876
2746.84	4.52676
2747.06	6.35822
2747.29	-7.8757
2747.51	-0.290131
2747.73	-4.96634
2747.95	5.49179
2748.17	-6.80533
2748.39	7.42636
2748.61	2.68933
2748.83	15.0222
2749.05	1.75327
2749.27	1.73444
2749.49	-0.199646
2749.71	11.1498
2749.93	7.34894
2750.15	2.6734
2750.37	-0.114441
2750.59	-5.77698
2750.81	1.85345
2751.03	5.70856
2751.25	11.468
2751.47	11.5411
2751.69	16.372
2751.91	6.96475
2752.13	-9.08762
2752.35	6.19547
2752.57	5.31311
2752.79	6.31107
2753.01	16.7938
2753.23	1.56555
2753.45	7.24863
2753.67	6.26819
2753.9	15.7391
2754.11	8.09705
2754.33	-5.24615
2754.55	-2.43033
2754.77	0.377716
2755	5.08353
2755.22	-7.29678
2755.44	5.97617
2755.66	-0.689941
2755.88	8.8024
2756.1	3.12735
2756.32	4.13879
2756.54	11.8256
2756.76	5.21936
2756.98	-2.31976
2757.2	15.782
2757.42	-4.16855
2757.64	8.20044
2757.86	-7.96536
2758.08	-5.10477
2758.3	4.42871
2758.51	4.4137
2758.74	13.8767
2758.96	7.19073
2759.18	-8.03424
2759.4	-0.400543
2759.61	-6.02734
2759.83	5.28235
2760.05	5.22458
2760.28	-10.9727
2760.5	8.99753
2760.71	14.9999
2760.93	12.2812
2761.15	-3.93607
2761.37	1.62582
2761.59	-1.36981
2761.81	11.8044
2762.03	4.16644
2762.25	6.03183
2762.47	14.6346
2762.69	-0.472748
2762.91	-2.3089
2763.13	-18.4389
2763.35	11.0174
2763.57	1.49826
2763.79	4.4382
2764.01	-6.80154
2764.23	-5.67746
2764.45	7.4751
2764.67	-2.14496
2764.89	4.50931
2765.11	0.7565
2765.33	9.31351
2765.55	3.56116
2765.77	10.1848
2765.99	0.639648
2766.21	5.36523
2766.43	5.30035
2766.65	-1.43707
2766.87	3.24353
2767.09	11.7436
2767.31	8.84317
2767.53	15.4562
2767.75	13.5049
2767.96	1.10373
2768.18	1.07806
2768.4	-0.83075
2768.62	5.84036
2768.84	-6.50507
2769.06	4.89996
2769.28	5.8573
2769.5	-3.62241
2769.72	5.93454
2769.94	15.5202
2770.16	-0.643799
2770.38	19.3388
2770.6	-4.44031
2770.82	3.19955
2771.04	16.5552
2771.26	11.8682
2771.48	12.9084
2771.7	6.35986
2771.92	6.58176
2772.13	-0.900482
2772.35	18.2915
2772.57	9.73245
2772.79	13.4984
2773.01	-2.66898
2773.23	3.89297
2773.45	2.62723
2773.67	9.2034
2773.89	-7.10358
2774.11	-0.594208
2774.33	13.8938
2774.55	5.41394
2774.77	-6.02261
2774.98	1.57507
2775.2	-1.38672
2775.42	8.05124
2775.64	8.91656
2775.86	19.3035
2776.08	11.6511
2776.3	6.86368
2776.52	7.79202
2776.74	4.92017
2776.96	5.8544
2777.18	1.07938
2777.4	-1.79276
2777.61	2.96982
2777.83	3.92798
2778.05	11.541
2778.27	2.02289
2778.49	-7.49191
2778.71	7.74802
2778.93	14.3922
2779.15	4.85345
2779.37	6.66168
2779.59	7.48016
2779.81	5.50717
2780.02	-0.243042
2780.24	-0.268127
2780.46	14.9492
2780.68	6.37976
2780.9	1.62262
2781.12	-0.248871
2781.34	0.72464
2781.56	7.38794
2781.78	2.63376
2782	6.4249
2782.21	-9.74152
2782.43	23.5287
2782.65	-0.285004
2782.87	10.954
2783.09	-4.29327
2783.31	-5.33173
2783.53	-5.45676
2783.75	11.5803
2783.97	0.170929
2784.18	-0.780426
2784.4	-7.44238
2784.62	3.00946
2784.84	15.4007
2785.06	3.12888
2785.28	4.14352
2785.5	11.8079
2785.72	-0.483978
2785.93	-6.13443
2786.15	2.436
2786.37	1.47183
2786.59	-5.16821
2786.81	5.25928
2787.03	-3.36496
2787.25	6.98935
2787.47	7.83563
2787.68	-6.53452
2787.9	-8.57123
2788.12	9.35254
2788.34	9.30112
2788.56	-0.229553
2788.78	3.51904
2789	7.28381
2789.21	3.45688
2789.43	-1.33591
2789.65	3.35538
2789.87	-0.478149
2790.09	10.8564
2790.31	17.4607
2790.52	-8.14023
2790.74	11.733
2790.96	7.89957
2791.18	2.13437
2791.4	12.4826
2791.62	-2.71826
2791.84	1.02951
2792.06	-0.880096
2792.27	18.0681
2792.49	8.66852
2792.71	2.08881
2792.93	-0.730103
2793.15	-6.41483
2793.37	4.93439
2793.58	0.164154
2793.8	6.74283
2794.02	-5.61621
2794.24	-5.66675
2794.46	9.19571
2794.68	5.42139
2794.89	0.0926208
2795.11	2.93896
2795.33	0.950684
2795.55	8.47568
2795.77	11.2777
2795.99	7.4566
2796.2	-8.6694
2796.42	15.8927
2796.64	0.714417
2796.86	3.51871
2797.08	6.33191
2797.3	3.46964
2797.51	9.14526
2797.73	4.39313
2797.95	-4.16742
2798.17	1.42108
2798.39	-0.516327
2798.6	-2.39896
2798.82	4.2438
2799.04	10.8953
2799.26	0.527374
2799.48	7.19223
2799.7	-1.24014
2799.91	5.4436
2800.13	9.16434
2800.35	2.42535
2800.57	-0.506531
2800.79	-5.37946
2801	-1.64566
2801.22	6.42169
2801.44	6.20435
2801.66	3.15762
2801.88	-12.9342
2802.1	2.19321
2802.31	0.474915
2802.53	2.41064
2802.75	-8.06915
2802.97	-1.48959
2803.19	1.26968
2803.4	4.03607
2803.62	13.398
2803.84	1.97211
2804.06	-6.60297
2804.27	1.82993
2804.49	-2.95987
2804.71	-4.91388
2804.93	-9.68335
2805.15	4.43805
2805.36	0.654968
2805.58	0.672333
2805.8	1.64484
2806.02	-3.9696
2806.24	-4.92145
2806.45	9.21744
2806.67	11.0938
2806.89	12.027
2807.11	6.33832
2807.33	-10.6747
2807.54	4.40964
2807.76	0.613922
2807.98	1.53775
2808.2	3.40717
2808.41	5.27625
2808.63	1.47791
2808.85	11.8346
2809.07	7.09244
2809.28	-1.42438
2809.5	5.15393
2809.72	0.409485
2809.94	16.4204
2810.16	-8.13458
2810.37	-7.2243
2810.59	-4.45377
2810.81	18.097
2811.03	-0.824524
2811.24	10.4078
2811.46	3.71783
2811.68	-12.3751
2811.9	-1.11136
2812.11	0.730591
2812.33	9.12808
2812.55	-7.88132
2812.77	-9.78244
2812.98	2.45093
2813.2	-3.18613
2813.42	-1.27454
2813.64	3.54364
2813.86	-1.13217
2814.07	7.24545
2814.29	-7.93289
2814.51	0.504822
2814.73	-6.99475
2814.94	11.8615
2815.16	-6.07614
2815.38	-11.8111
2815.59	0.292694
2815.81	11.5896
2816.03	-8.13171
2816.25	3.12195
2816.46	-7.27634
2816.68	1.13593
2816.9	3.90875
2817.12	0.0895081
2817.34	-3.72983
2817.55	-16.0769
2817.77	-0.181793
2817.99	6.30011
2818.2	-1.29456
2818.42	-0.414948
2818.64	-5.15244
2818.86	-6.14032
2819.07	3.22794
2819.29	6.99622
2819.51	10.1045
2819.72	-6.67709
2819.94	-4.80142
2820.16	1.76306
2820.38	7.31073
2820.59	2.59143
2820.81	3.32401
2821.03	0.113037
2821.25	13.408
2821.46	11.5659
2821.68	5.20529
2821.9	9.87869
2822.11	-13.7455
2822.33	3.01627
2822.55	-6.78156
2822.77	-3.49057
2822.98	10.4274
2823.2	-13.1295
2823.42	-3.86234
2823.63	-7.76379
2823.85	16.5913
2824.07	9.23135
2824.28	11.2409
2824.5	-8.47159
2824.72	-5.73343
2824.94	3.56134
2825.15	12.0701
2825.37	0.800598
2825.59	-2.99985
2825.81	-8.63101
2826.02	-7.7291
2826.24	-8.61212
2826.46	13.9924
2826.67	10.3199
2826.89	1.85062
2827.11	-0.093689
2827.32	-4.40424
2827.54	2.22241
2827.76	-2.64423
2827.97	-5.62808
2828.19	-1.06369
2828.41	-2.04108
2828.62	0.751617
2828.84	-10.5588
2829.06	6.26785
2829.27	1.53961
2829.49	-4.10632
2829.71	5.27554
2829.93	9.9805
2830.14	-9.69601
2830.36	-1.24664
2830.58	7.22934
2830.79	0.686401
2831.01	0.694153
2831.23	8.18484
2831.44	-12.4693
2831.66	9.97705
2831.88	0.488953
2832.09	6.98917
2832.31	9.74747
2832.53	-7.1777
2832.74	0.267212
2832.96	-6.32346
2833.18	-4.47858
2833.39	12.3568
2833.61	-5.43396
2833.83	-5.4155
2834.04	2.09607
2834.26	1.15723
2834.48	0.203033
2834.69	4.93066
2834.91	1.24231
2835.13	-5.24789
2835.34	-3.32623
2835.56	-1.42001
2835.78	-2.33435
2835.99	-1.37311
2836.21	1.46954
2836.43	1.50491
2836.64	-3.15671
2836.86	-2.21262
2837.07	20.2956
2837.29	-5.048
2837.51	8.01563
2837.72	14.525
2837.94	-6.11581
2838.16	-0.508209
2838.37	1.35342
2838.59	1.34503
2838.81	0.400909
2839.02	-7.09933
2839.24	1.36478
2839.46	4.22379
2839.67	11.8185
2839.89	-2.13278
2840.11	0.816193
2840.32	19.7022
2840.54	5.79059
2840.75	-6.41718
2840.97	1.67926
2841.19	5.88028
2841.4	3.65765
2841.62	10.1349
2841.84	-3.78897
2842.05	-3.53818
2842.27	0.506348
2842.49	7.27988
2842.7	2.60345
2842.92	12.9277
2843.13	-4.03143
2843.35	-6.95096
2843.57	8.97128
2843.78	8.98026
2844	6.13757
2844.22	1.42044
2844.43	-7.98068
2844.65	-6.11636
2844.86	5.07913
2845.08	7.86813
2845.3	-1.48825
2845.51	-8.02649
2845.73	3.28363
2845.95	7.12589
2846.16	-2.14218
2846.38	-0.105988
2846.59	2.81024
2846.81	11.2924
2847.03	4.70248
2847.24	2.7771
2847.46	0.819305
2847.67	5.44235
2847.89	12.807
2848.11	-6.97482
2848.32	4.2511
2848.54	4.22903
2848.75	-6.09717
2848.97	-3.23203
2849.19	-13.5248
2849.4	7.14957
2849.62	-4.0824
2849.83	10.0361
2850.05	9.1272
2850.27	0.722076
2850.48	-4.85434
2850.7	9.28033
2850.91	12.1261
2851.13	-1.01678
2851.34	-4.75806
2851.56	7.45496
2851.78	0.838623
2851.99	-3.91037
2852.21	1.70789
2852.42	10.1575
2852.64	0.753082
2852.85	-5.80591
2853.07	-2.02472
2853.29	-2.01846
2853.5	-2.02039
2853.72	4.57703
2853.93	-4.80554
2854.15	14.9453
2854.36	-4.77155
2854.58	5.58832
2854.8	3.69763
2855.01	2.74072
2855.23	14.0057
2855.44	-5.72208
2855.66	7.44272
2855.87	-12.2964
2856.09	6.49713
2856.31	3.65866
2856.52	-0.121246
2856.74	6.45193
2856.95	5.51489
2857.17	-1.05249
2857.38	-3.85004
2857.6	1.81152
2857.82	-8.52872
2858.03	0.883881
2858.25	3.71158
2858.46	10.2931
2858.68	9.34393
2858.89	-0.0732422
2859.11	5.53647
2859.33	-6.71548
2859.54	11.1437
2859.76	4.55646
2859.97	-0.134674
2860.19	9.28516
2860.4	14.0485
2860.62	6.61713
2860.83	-7.38101
2861.05	1.20755
2861.26	-6.23062
2861.48	-5.20837
2861.7	-5.1203
2861.91	-0.329041
2862.13	5.38766
2862.34	3.547
2862.56	-6.81918
2862.77	7.2879
2862.99	-5.03204
2863.2	6.19418
2863.42	1.40494
2863.63	11.6935
2863.85	5.03815
2864.06	0.296082
2864.28	-7.26544
2864.49	4.95465
2864.71	4.9512
2864.93	-4.44955
2865.14	-6.28586
2865.36	2.23465
2865.57	-4.33466
2865.79	-5.24606
2866	3.27332
2866.22	6.14224
2866.43	4.31317
2866.65	9.07407
2866.86	-2.21857
2867.08	0.614716
2867.29	-1.27502
2867.51	0.619293
2867.72	8.17627
2867.94	-1.20612
2868.15	16.7751
2868.37	-3.8924
2868.58	9.41193
2868.8	1.03546
2869.01	-12.051
2869.23	-0.706146
2869.44	14.3629
2869.66	-4.72699
2869.87	7.52036
2870.09	6.59482
2870.3	5.64139
2870.52	-3.80667
2870.73	7.5159
2870.95	1.83997
2871.17	6.54199
2871.38	8.40118
2871.59	-2.96982
2871.81	-1.13489
2872.02	17.6971
2872.24	4.47601
2872.45	21.4672
2872.67	3.53513
2872.88	4.4841
2873.1	-3.96848
2873.31	0.81369
2873.53	2.77344
2873.74	4.74219
2873.96	-2.72726
2874.17	3.03412
2874.39	6.88556
2874.6	1.29459
2874.82	12.707
2875.03	4.28537
2875.25	0.526825
2875.46	4.30603
2875.68	16.5683
2875.89	2.35464
2876.11	7.05542
2876.32	12.73
2876.54	-3.3512
2876.75	6.10648
2876.97	-3.35489
2877.18	-5.24387
2877.4	2.33099
2877.61	25.9971
2877.83	0.475311
2878.04	-0.434937
2878.25	7.15128
2878.47	5.31732
2878.68	7.20993
2878.9	1.48425
2879.11	-2.3974
2879.33	-7.15897
2879.54	14.5758
2879.76	2.22482
2879.97	2.19638
2880.19	-5.38684
2880.4	7.86865
2880.62	-1.53558
2880.83	7.03482
2881.04	17.4954
2881.26	-5.17044
2881.47	-7.00827
2881.69	5.38812
2881.9	6.42291
2882.12	-7.78397
2882.33	3.59967
2882.55	0.767914
2882.76	-6.82144
2882.98	7.3558
2883.19	-0.341766
2883.4	9.91992
2883.62	4.18542
2883.83	-9.08557
2884.05	3.20792
2884.26	17.4738
2884.48	1.40579
2884.69	7.12735
2884.9	3.47806
2885.12	-3.96594
2885.33	8.42917
2885.55	15.0981
2885.76	-0.0723877
2885.98	-5.78967
2886.19	-0.118713
2886.41	15.064
2886.62	1.80295
2886.83	13.205
2887.05	3.77219
2887.26	6.6954
2887.48	1.13641
2887.69	0.353058
2887.91	6.01233
2888.12	1.25702
2888.33	14.5788
2888.55	7.00916
2888.76	4.21484
2888.98	8.03177
2889.19	-7.16446
2889.41	3.27753
2889.62	6.11438
2889.83	12.743
2890.05	7.02112
2890.26	6.99658
2890.48	14.569
2890.69	7.90576
2890.91	16.4417
2891.12	4.09451
2891.33	-9.22055
2891.55	24.028
2891.76	2.23404
2891.97	-2.49084
2892.19	7.0368
2892.4	-3.43011
2892.62	-3.43204
2892.83	-0.745544
2893.05	-2.51425
2893.26	5.36331
2893.47	0.613281
2893.69	9.07242
2893.9	2.34268
2894.11	-8.21375
2894.33	-6.37344
2894.54	-0.740448
2894.76	8.68698
2894.97	0.102509
2895.19	11.6995
2895.4	3.36316
2895.61	-5.90903
2895.83	-4.99197
2896.04	13.9486
2896.25	6.23795
2896.47	-4.16638
2896.68	3.44095
2896.9	1.54016
2897.11	0.59201
2897.32	-5.10736
2897.54	4.40845
2897.75	3.46854
2897.97	-3.17554
2898.18	6.35388
2898.39	-0.321747
2898.61	7.28464
2898.82	2.55832
2899.04	-3.10648
2899.25	15.0222
2899.46	4.61029
2899.68	7.50821
2899.89	7.54126
2900.1	6.62064
2900.32	26.6577
2900.53	5.71307
2900.75	-0.0255127
2900.96	10.4327
2901.17	5.65707
2901.39	3.7384
2901.6	9.44223
2901.81	10.3679
2902.03	-2.99936
2902.24	-7.79807
2902.45	-7.78375
2902.67	12.2198
2902.88	-2.03629
2903.09	11.3241
2903.31	9.46881
2903.52	13.3515
2903.74	12.4525
2903.95	2.0119
2904.16	11.5672
2904.38	-3.65698
2904.59	9.70248
2904.8	4.95642
2905.02	-2.6369
2905.23	4.04666
2905.44	-15.0549
2905.66	4.90369
2905.87	5.77386
2906.08	9.50638
2906.3	-1.03189
2906.51	0.825348
2906.72	3.6481
2906.94	-10.6563
2907.15	1.698
2907.36	7.37488
2907.58	2.61874
2907.79	6.45239
2908	-1.13525
2908.22	-1.06833
2908.43	-8.65073
2908.65	-2.97574
2908.86	12.174
2909.07	13.1077
2909.29	7.40607
2909.5	9.32791
2909.71	4.58279
2909.92	5.55634
2910.14	9.38559
2910.35	7.49564
2910.57	5.59808
2910.78	6.55225
2910.99	9.41019
2911.2	10.3803
2911.42	-0.0697021
2911.63	0.906708
2911.84	5.6763
2912.06	2.82031
2912.27	17.14
2912.48	10.5038
2912.7	19.1004
2912.91	-7.58932
2913.12	3.83694
2913.34	11.4074
2913.55	14.2115
2913.76	10.3941
2913.97	18.0039
2914.19	20.8401
2914.4	5.55133
2914.62	17.8648
2914.83	25.4207
2915.04	19.6472
2915.25	28.1622
2915.47	26.2855
2915.68	44.4638
2915.89	28.2612
2916.11	35.8806
2916.32	26.3745
2916.53	27.3364
2916.74	19.7097
2916.96	10.1819
2917.17	28.2868
2917.38	21.6298
2917.6	16.8788
2917.81	12.1081
2918.02	1.5957
2918.24	6.31549
2918.45	10.0865
2918.66	-0.396393
2918.88	1.51126
2919.09	9.1199
2919.3	5.28574
2919.51	-2.37308
2919.73	12.8055
2919.94	5.1239
2920.15	6.01157
2920.36	7.867
2920.58	6.86584
2920.79	10.5988
2921	1.03149
2921.22	4.81165
2921.43	20.9411
2921.64	9.49225
2921.85	2.79062
2922.07	1.78262
2922.28	-0.166901
2922.49	5.49872
2922.71	14.0282
2922.92	11.178
2923.13	14.9799
2923.34	-6.87677
2923.56	14.0419
2923.77	-4.0123
2923.98	14.0352
2924.19	5.46619
2924.41	10.1974
2924.62	3.52637
2924.83	4.45825
2925.05	3.49908
2925.26	-0.304413
2925.47	-1.25861
2925.68	13.9314
2925.9	1.5647
2926.11	17.699
2926.32	0.572937
2926.53	5.29672
2926.74	4.36981
2926.96	8.16541
2927.17	17.6426
2927.38	-3.29709
2927.6	1.39886
2927.81	2.31763
2928.02	8.01837
2928.23	2.29178
2928.45	2.21829
2928.66	11.6768
2928.87	4.05548
2929.08	6.94269
2929.3	-14.8358
2929.51	16.6696
2929.72	9.3479
2929.93	4.79855
2930.14	-2.71729
2930.36	2.62909
2930.57	10.615
2930.78	2.35849
2930.99	6.25449
2931.21	3.52557
2931.42	6.32684
2931.63	7.3222
2931.84	-10.8226
2932.06	0.515015
2932.27	11.8065
2932.48	2.17023
2932.69	9.75513
2932.91	5.97638
2933.12	-1.59778
2933.33	8.87161
2933.54	3.19376
2933.75	9.86633
2933.97	1.34952
2934.18	8.92273
2934.39	8.87631
2934.6	3.13272
2934.82	9.74133
2935.03	-6.48999
2935.24	-4.6666
2935.45	18.9936
2935.66	8.50815
2935.88	-0.0526123
2936.09	-2.88257
2936.3	4.70367
2936.51	11.3532
2936.72	9.46402
2936.94	1.91931
2937.15	-2.79364
2937.36	-7.52371
2937.57	-4.69376
2937.79	7.63702
2938	3.81305
2938.21	4.71933
2938.42	13.209
2938.63	10.2952
2938.85	10.1901
2939.06	-1.25064
2939.27	9.12369
2939.48	2.46814
2939.69	5.31174
2939.91	3.43884
2940.12	-6.04327
2940.33	2.56549
2940.54	-3.02457
2940.75	-1.9368
2940.97	10.5842
2941.18	-3.59091
2941.39	3.15872
2941.6	7.98621
2941.81	6.12982
2942.02	-3.44965
2942.24	11.5614
2942.45	6.12537
2942.66	-1.59946
2942.87	9.49472
2943.08	-0.747925
2943.29	3.1409
2943.51	13.847
2943.72	17.329
2943.93	8.56299
2944.14	7.49042
2944.35	1.73355
2944.57	4.51715
2944.78	-0.309723
2944.99	6.14319
2945.2	2.99188
2945.41	12.1286
2945.63	16.2754
2945.84	19.0519
2946.05	-4.88144
2946.26	15.8081
2946.47	-0.281403
2946.68	9.15179
2946.89	0.632629
2947.11	14.8316
2947.32	7.29044
2947.53	-2.1254
2947.74	9.29239
2947.95	3.60342
2948.17	-3.95145
2948.38	-8.68671
2948.59	7.38699
2948.8	-9.68292
2949.01	3.51926
2949.22	4.4212
2949.43	2.48004
2949.65	6.21509
2949.86	6.16568
2950.07	6.15857
2950.28	-4.23633
2950.49	4.27988
2950.7	-7.04849
2950.92	-0.388153
2951.13	1.56436
2951.34	8.25681
2951.55	-3.07364
2951.76	6.375
2951.97	5.38208
2952.18	3.44815
2952.4	17.6393
2952.61	11.9443
2952.82	-1.33176
2953.03	-4.21936
2953.24	-3.33582
2953.45	2.26172
2953.66	-6.33859
2953.87	-0.73764
2954.09	-3.64215
2954.3	-4.65451
2954.51	0.948334
2954.72	2.77707
2954.93	0.832703
2955.14	-1.11792
2955.35	1.66739
2955.56	4.48511
2955.78	1.6438
2955.99	12.0229
2956.2	0.731171
2956.41	6.45184
2956.62	-7.68024
2956.83	-1.05807
2957.04	14.0537
2957.25	-0.114136
2957.47	4.60822
2957.68	2.72296
2957.89	-5.77237
2958.1	-2.93246
2958.31	-5.75943
2958.52	-8.58679
2958.73	3.70129
2958.94	14.1058
2959.16	-1.0246
2959.37	-1.05334
2959.58	-0.176392
2959.79	3.47241
2960	-5.06647
2960.21	13.8679
2960.42	-3.09308
2960.63	7.26343
2960.84	-0.456299
2961.05	-2.56494
2961.27	7.92374
2961.48	-4.19022
2961.69	0.567108
2961.9	2.2468
2962.11	3.90283
2962.32	1.04514
2962.53	-2.7334
2962.74	-7.45233
2962.95	4.81985
2963.16	-8.3371
2963.38	-3.56393
2963.59	4.04984
2963.8	15.4338
2964.01	-0.552124
2964.22	-5.22217
2964.43	1.42776
2964.64	-9.86636
2964.85	12.8118
2965.06	9.03186
2965.27	5.23145
2965.48	-6.19016
2965.7	-10.0616
2965.91	4.01184
2966.12	4.87476
2966.33	-4.62616
2966.54	-14.1069
2966.75	-1.90054
2966.96	11.2306
2967.17	0.813385
2967.38	5.46988
2967.59	15.7711
2967.8	-4.05103
2968.01	-1.25525
2968.23	17.5707
2968.43	-2.18698
2968.65	-4.97705
2968.86	-4.93744
2969.07	11.1099
2969.28	-3.02298
2969.49	12.0435
2969.7	-2.0867
2969.91	6.39987
2970.12	-9.60934
2970.33	13.0091
2970.54	-4.8746
2970.75	-5.79645
2970.96	-2.02985
2971.17	-6.75974
2971.38	-2.9971
2971.59	3.60458
2971.81	7.38641
2972.02	-5.79321
2972.23	8.3577
2972.44	-5.77054
2972.65	-2.93948
2972.86	1.76849
2973.07	3.62524
2973.28	-10.5429
2973.49	10.1555
2973.7	3.55255
2973.91	-3.03928
2974.12	-14.3744
2974.33	-4.03384
2974.54	2.53491
2974.75	-4.09204
2974.96	5.29193
2975.17	9.95685
2975.38	2.39075
2975.59	-4.23117
2975.8	-4.23401
2976.01	9.91373
2976.22	-10.7752
2976.44	0.581512
2976.65	-3.16418
2976.86	-5.078
2977.07	0.587006
2977.28	4.38174
2977.49	10.1075
2977.7	11.146
2977.91	1.80295
2978.12	-0.989471
2978.33	-2.94083
2978.54	0.462067
2978.75	-15.8286
2978.96	-5.47116
2979.17	-3.52911
2979.38	7.40613
2979.59	4.93518
2979.8	12.2021
2980.01	-0.655304
2980.22	-16.8713
2980.43	7.37039
2980.64	8.17889
2980.85	2.47168
2981.06	-0.374359
2981.27	4.38101
2981.48	8.17291
2981.69	-1.23248
2981.9	3.33829
2982.11	0.384796
2982.32	2.25146
2982.53	14.5342
2982.74	8.89804
2982.95	-6.18445
2983.16	1.33554
2983.37	1.30057
2983.58	1.13785
2983.79	0.114929
2984	4.79901
2984.21	8.54016
2984.42	11.3343
2984.63	7.54169
2984.84	9.39902
2985.05	-1.90811
2985.26	4.66989
2985.47	2.79184
2985.68	-4.70862
2985.89	-8.42981
2986.1	1.95786
2986.31	0.105255
2986.52	-9.28125
2986.73	3.92697
2986.94	8.66293
2987.15	-3.56985
2987.36	-0.752228
2987.57	5.84702
2987.78	7.75546
2987.99	-1.62189
2988.2	-2.52359
2988.41	7.86819
2988.62	0.333923
2988.83	-3.42609
2989.04	-1.52997
2989.25	8.82935
2989.46	-3.43097
2989.67	9.74597
2989.88	-11.9309
2990.09	8.78293
2990.3	1.22986
2990.51	7.811
2990.72	11.5839
2990.93	5.02393
2991.14	0.348755
2991.35	-5.276
2991.56	12.6573
2991.76	9.86124
2991.98	-14.6278
2992.18	7.05157
2992.39	10.8069
2992.6	7.95459
2992.81	7.92398
2993.02	-0.592743
2993.23	9.73624
2993.44	2.16379
2993.65	4.02698
2993.86	5.90997
2994.07	6.85132
2994.28	-5.38153
2994.49	3.13333
2994.7	-7.1813
2994.91	-0.516388
2995.12	12.7615
2995.33	5.29971
2995.54	-11.6
2995.75	3.57486
2995.96	-0.122711
2996.17	9.36279
2996.38	8.44296
2996.59	10.3468
2996.79	5.64044
2997	-7.56244
2997.21	0.00827026
2997.42	8.54605
2997.63	-5.5849
2997.84	3.89236
2998.05	2.97549
2998.26	-11.1577
2998.47	4.95288
2998.68	1.18674
2998.89	12.5291
2999.1	7.79425
2999.31	-6.4115
2999.52	3.00308
2999.73	5.80588
2999.94	10.4969
